,cyclohexanone_3um,
Wavenumbers [1/cm],Absorbance,
4500.000,0.067,
4499.000,0.067,
4498.000,0.067,
4497.000,0.067,
4496.000,0.067,
4495.000,0.067,
4494.000,0.067,
4493.000,0.067,
4492.000,0.0671,
4491.000,0.0671,
4490.000,0.0671,
4489.000,0.0671,
4488.000,0.0672,
4487.000,0.0672,
4486.000,0.0673,
4485.000,0.0673,
4484.000,0.0673,
4483.000,0.0673,
4482.000,0.0673,
4481.000,0.0673,
4480.000,0.0673,
4479.000,0.0673,
4478.000,0.0674,
4477.000,0.0674,
4476.000,0.0674,
4475.000,0.0675,
4474.000,0.0675,
4473.000,0.0676,
4472.000,0.0676,
4471.000,0.0676,
4470.000,0.0677,
4469.000,0.0677,
4468.000,0.0677,
4467.000,0.0678,
4466.000,0.0678,
4465.000,0.0678,
4464.000,0.0678,
4463.000,0.0679,
4462.000,0.0679,
4461.000,0.068,
4460.000,0.068,
4459.000,0.0681,
4458.000,0.0681,
4457.000,0.0681,
4456.000,0.0682,
4455.000,0.0682,
4454.000,0.0683,
4453.000,0.0683,
4452.000,0.0684,
4451.000,0.0685,
4450.000,0.0685,
4449.000,0.0686,
4448.000,0.0687,
4447.000,0.0687,
4446.000,0.0688,
4445.000,0.0689,
4444.000,0.069,
4443.000,0.0691,
4442.000,0.0692,
4441.000,0.0692,
4440.000,0.0693,
4439.000,0.0694,
4438.000,0.0695,
4437.000,0.0696,
4436.000,0.0697,
4435.000,0.0698,
4434.000,0.0699,
4433.000,0.0701,
4432.000,0.0702,
4431.000,0.0704,
4430.000,0.0705,
4429.000,0.0707,
4428.000,0.0709,
4427.000,0.071,
4426.000,0.0712,
4425.000,0.0714,
4424.000,0.0715,
4423.000,0.0717,
4422.000,0.0719,
4421.000,0.0721,
4420.000,0.0723,
4419.000,0.0724,
4418.000,0.0727,
4417.000,0.0729,
4416.000,0.0731,
4415.000,0.0733,
4414.000,0.0736,
4413.000,0.0738,
4412.000,0.0741,
4411.000,0.0743,
4410.000,0.0746,
4409.000,0.0749,
4408.000,0.0752,
4407.000,0.0754,
4406.000,0.0758,
4405.000,0.0761,
4404.000,0.0764,
4403.000,0.0767,
4402.000,0.0771,
4401.000,0.0774,
4400.000,0.0777,
4399.000,0.0781,
4398.000,0.0785,
4397.000,0.0789,
4396.000,0.0793,
4395.000,0.0797,
4394.000,0.0801,
4393.000,0.0805,
4392.000,0.081,
4391.000,0.0814,
4390.000,0.0819,
4389.000,0.0823,
4388.000,0.0828,
4387.000,0.0833,
4386.000,0.0837,
4385.000,0.0842,
4384.000,0.0846,
4383.000,0.0851,
4382.000,0.0856,
4381.000,0.086,
4380.000,0.0865,
4379.000,0.087,
4378.000,0.0875,
4377.000,0.0879,
4376.000,0.0883,
4375.000,0.0887,
4374.000,0.0891,
4373.000,0.0894,
4372.000,0.0897,
4371.000,0.09,
4370.000,0.0903,
4369.000,0.0905,
4368.000,0.0906,
4367.000,0.0907,
4366.000,0.0907,
4365.000,0.0907,
4364.000,0.0906,
4363.000,0.0905,
4362.000,0.0904,
4361.000,0.0902,
4360.000,0.0899,
4359.000,0.0897,
4358.000,0.0894,
4357.000,0.0891,
4356.000,0.0888,
4355.000,0.0886,
4354.000,0.0883,
4353.000,0.088,
4352.000,0.0878,
4351.000,0.0876,
4350.000,0.0874,
4349.000,0.0872,
4348.000,0.087,
4347.000,0.0868,
4346.000,0.0865,
4345.000,0.0863,
4344.000,0.0861,
4343.000,0.0858,
4342.000,0.0855,
4341.000,0.0852,
4340.000,0.0848,
4339.000,0.0845,
4338.000,0.0841,
4337.000,0.0837,
4336.000,0.0833,
4335.000,0.0829,
4334.000,0.0826,
4333.000,0.0823,
4332.000,0.082,
4331.000,0.0817,
4330.000,0.0815,
4329.000,0.0813,
4328.000,0.0812,
4327.000,0.0811,
4326.000,0.081,
4325.000,0.0809,
4324.000,0.0809,
4323.000,0.0809,
4322.000,0.0809,
4321.000,0.081,
4320.000,0.0811,
4319.000,0.0812,
4318.000,0.0813,
4317.000,0.0814,
4316.000,0.0815,
4315.000,0.0816,
4314.000,0.0817,
4313.000,0.0818,
4312.000,0.0819,
4311.000,0.082,
4310.000,0.0821,
4309.000,0.0822,
4308.000,0.0822,
4307.000,0.0823,
4306.000,0.0823,
4305.000,0.0824,
4304.000,0.0825,
4303.000,0.0825,
4302.000,0.0826,
4301.000,0.0827,
4300.000,0.0829,
4299.000,0.083,
4298.000,0.0832,
4297.000,0.0833,
4296.000,0.0835,
4295.000,0.0837,
4294.000,0.084,
4293.000,0.0842,
4292.000,0.0845,
4291.000,0.0848,
4290.000,0.0851,
4289.000,0.0854,
4288.000,0.0857,
4287.000,0.086,
4286.000,0.0863,
4285.000,0.0866,
4284.000,0.0869,
4283.000,0.0871,
4282.000,0.0872,
4281.000,0.0874,
4280.000,0.0874,
4279.000,0.0875,
4278.000,0.0875,
4277.000,0.0874,
4276.000,0.0874,
4275.000,0.0873,
4274.000,0.0872,
4273.000,0.0871,
4272.000,0.0869,
4271.000,0.0868,
4270.000,0.0866,
4269.000,0.0864,
4268.000,0.0862,
4267.000,0.086,
4266.000,0.0858,
4265.000,0.0856,
4264.000,0.0853,
4263.000,0.0851,
4262.000,0.0848,
4261.000,0.0845,
4260.000,0.0842,
4259.000,0.0839,
4258.000,0.0836,
4257.000,0.0833,
4256.000,0.083,
4255.000,0.0827,
4254.000,0.0824,
4253.000,0.0822,
4252.000,0.0819,
4251.000,0.0817,
4250.000,0.0815,
4249.000,0.0813,
4248.000,0.081,
4247.000,0.0808,
4246.000,0.0806,
4245.000,0.0805,
4244.000,0.0803,
4243.000,0.0802,
4242.000,0.0801,
4241.000,0.08,
4240.000,0.08,
4239.000,0.0799,
4238.000,0.0799,
4237.000,0.0799,
4236.000,0.0799,
4235.000,0.08,
4234.000,0.0801,
4233.000,0.0801,
4232.000,0.0803,
4231.000,0.0804,
4230.000,0.0805,
4229.000,0.0807,
4228.000,0.0809,
4227.000,0.0811,
4226.000,0.0813,
4225.000,0.0814,
4224.000,0.0816,
4223.000,0.0818,
4222.000,0.082,
4221.000,0.0821,
4220.000,0.0823,
4219.000,0.0824,
4218.000,0.0825,
4217.000,0.0825,
4216.000,0.0826,
4215.000,0.0826,
4214.000,0.0826,
4213.000,0.0825,
4212.000,0.0824,
4211.000,0.0824,
4210.000,0.0823,
4209.000,0.0822,
4208.000,0.082,
4207.000,0.0819,
4206.000,0.0818,
4205.000,0.0817,
4204.000,0.0816,
4203.000,0.0815,
4202.000,0.0814,
4201.000,0.0813,
4200.000,0.0812,
4199.000,0.0812,
4198.000,0.0811,
4197.000,0.0811,
4196.000,0.0811,
4195.000,0.0811,
4194.000,0.0811,
4193.000,0.0811,
4192.000,0.0812,
4191.000,0.0812,
4190.000,0.0813,
4189.000,0.0814,
4188.000,0.0815,
4187.000,0.0816,
4186.000,0.0817,
4185.000,0.0818,
4184.000,0.0818,
4183.000,0.0819,
4182.000,0.0819,
4181.000,0.082,
4180.000,0.0821,
4179.000,0.0821,
4178.000,0.0821,
4177.000,0.0821,
4176.000,0.0822,
4175.000,0.0822,
4174.000,0.0822,
4173.000,0.0822,
4172.000,0.0823,
4171.000,0.0823,
4170.000,0.0823,
4169.000,0.0823,
4168.000,0.0824,
4167.000,0.0824,
4166.000,0.0824,
4165.000,0.0824,
4164.000,0.0824,
4163.000,0.0824,
4162.000,0.0824,
4161.000,0.0824,
4160.000,0.0824,
4159.000,0.0825,
4158.000,0.0825,
4157.000,0.0825,
4156.000,0.0825,
4155.000,0.0826,
4154.000,0.0826,
4153.000,0.0826,
4152.000,0.0827,
4151.000,0.0827,
4150.000,0.0827,
4149.000,0.0826,
4148.000,0.0826,
4147.000,0.0826,
4146.000,0.0826,
4145.000,0.0825,
4144.000,0.0825,
4143.000,0.0824,
4142.000,0.0823,
4141.000,0.0822,
4140.000,0.0822,
4139.000,0.0821,
4138.000,0.082,
4137.000,0.0819,
4136.000,0.0819,
4135.000,0.0818,
4134.000,0.0818,
4133.000,0.0817,
4132.000,0.0817,
4131.000,0.0817,
4130.000,0.0817,
4129.000,0.0817,
4128.000,0.0816,
4127.000,0.0816,
4126.000,0.0816,
4125.000,0.0815,
4124.000,0.0815,
4123.000,0.0814,
4122.000,0.0813,
4121.000,0.0812,
4120.000,0.0812,
4119.000,0.0811,
4118.000,0.081,
4117.000,0.0809,
4116.000,0.0808,
4115.000,0.0807,
4114.000,0.0807,
4113.000,0.0806,
4112.000,0.0805,
4111.000,0.0805,
4110.000,0.0804,
4109.000,0.0804,
4108.000,0.0803,
4107.000,0.0802,
4106.000,0.0802,
4105.000,0.0801,
4104.000,0.08,
4103.000,0.0799,
4102.000,0.0799,
4101.000,0.0798,
4100.000,0.0797,
4099.000,0.0796,
4098.000,0.0795,
4097.000,0.0794,
4096.000,0.0794,
4095.000,0.0793,
4094.000,0.0793,
4093.000,0.0793,
4092.000,0.0793,
4091.000,0.0793,
4090.000,0.0793,
4089.000,0.0793,
4088.000,0.0793,
4087.000,0.0793,
4086.000,0.0793,
4085.000,0.0793,
4084.000,0.0793,
4083.000,0.0793,
4082.000,0.0793,
4081.000,0.0792,
4080.000,0.0792,
4079.000,0.0791,
4078.000,0.079,
4077.000,0.079,
4076.000,0.0789,
4075.000,0.0788,
4074.000,0.0787,
4073.000,0.0786,
4072.000,0.0785,
4071.000,0.0784,
4070.000,0.0783,
4069.000,0.0781,
4068.000,0.078,
4067.000,0.0779,
4066.000,0.0778,
4065.000,0.0777,
4064.000,0.0776,
4063.000,0.0776,
4062.000,0.0776,
4061.000,0.0775,
4060.000,0.0776,
4059.000,0.0776,
4058.000,0.0776,
4057.000,0.0777,
4056.000,0.0777,
4055.000,0.0778,
4054.000,0.0779,
4053.000,0.078,
4052.000,0.0781,
4051.000,0.0782,
4050.000,0.0783,
4049.000,0.0784,
4048.000,0.0785,
4047.000,0.0786,
4046.000,0.0787,
4045.000,0.0788,
4044.000,0.0788,
4043.000,0.0789,
4042.000,0.0789,
4041.000,0.079,
4040.000,0.0789,
4039.000,0.0789,
4038.000,0.0789,
4037.000,0.0788,
4036.000,0.0788,
4035.000,0.0787,
4034.000,0.0786,
4033.000,0.0785,
4032.000,0.0784,
4031.000,0.0784,
4030.000,0.0783,
4029.000,0.0783,
4028.000,0.0783,
4027.000,0.0783,
4026.000,0.0783,
4025.000,0.0783,
4024.000,0.0784,
4023.000,0.0785,
4022.000,0.0785,
4021.000,0.0786,
4020.000,0.0787,
4019.000,0.0788,
4018.000,0.0789,
4017.000,0.079,
4016.000,0.079,
4015.000,0.0791,
4014.000,0.0791,
4013.000,0.0791,
4012.000,0.0791,
4011.000,0.0791,
4010.000,0.079,
4009.000,0.0789,
4008.000,0.0789,
4007.000,0.0788,
4006.000,0.0787,
4005.000,0.0786,
4004.000,0.0785,
4003.000,0.0784,
4002.000,0.0782,
4001.000,0.0781,
4000.000,0.078,
3999.000,0.0779,
3998.000,0.0778,
3997.000,0.0777,
3996.000,0.0775,
3995.000,0.0774,
3994.000,0.0774,
3993.000,0.0773,
3992.000,0.0772,
3991.000,0.0772,
3990.000,0.0772,
3989.000,0.0772,
3988.000,0.0772,
3987.000,0.0772,
3986.000,0.0773,
3985.000,0.0774,
3984.000,0.0775,
3983.000,0.0776,
3982.000,0.0777,
3981.000,0.0779,
3980.000,0.078,
3979.000,0.0781,
3978.000,0.0782,
3977.000,0.0784,
3976.000,0.0785,
3975.000,0.0786,
3974.000,0.0787,
3973.000,0.0788,
3972.000,0.0789,
3971.000,0.079,
3970.000,0.0791,
3969.000,0.0792,
3968.000,0.0793,
3967.000,0.0794,
3966.000,0.0795,
3965.000,0.0797,
3964.000,0.0798,
3963.000,0.08,
3962.000,0.0802,
3961.000,0.0804,
3960.000,0.0806,
3959.000,0.0809,
3958.000,0.0811,
3957.000,0.0813,
3956.000,0.0816,
3955.000,0.0818,
3954.000,0.082,
3953.000,0.0822,
3952.000,0.0823,
3951.000,0.0824,
3950.000,0.0825,
3949.000,0.0825,
3948.000,0.0824,
3947.000,0.0824,
3946.000,0.0822,
3945.000,0.0821,
3944.000,0.0819,
3943.000,0.0817,
3942.000,0.0816,
3941.000,0.0814,
3940.000,0.0812,
3939.000,0.081,
3938.000,0.0808,
3937.000,0.0806,
3936.000,0.0803,
3935.000,0.0801,
3934.000,0.0798,
3933.000,0.0796,
3932.000,0.0793,
3931.000,0.0791,
3930.000,0.0788,
3929.000,0.0786,
3928.000,0.0783,
3927.000,0.0781,
3926.000,0.0778,
3925.000,0.0776,
3924.000,0.0773,
3923.000,0.0771,
3922.000,0.0768,
3921.000,0.0765,
3920.000,0.0762,
3919.000,0.076,
3918.000,0.0757,
3917.000,0.0754,
3916.000,0.0752,
3915.000,0.075,
3914.000,0.0748,
3913.000,0.0746,
3912.000,0.0744,
3911.000,0.0743,
3910.000,0.0742,
3909.000,0.0741,
3908.000,0.074,
3907.000,0.0738,
3906.000,0.0737,
3905.000,0.0735,
3904.000,0.0733,
3903.000,0.0731,
3902.000,0.0729,
3901.000,0.0727,
3900.000,0.0726,
3899.000,0.0725,
3898.000,0.0726,
3897.000,0.0726,
3896.000,0.0727,
3895.000,0.0727,
3894.000,0.0728,
3893.000,0.0728,
3892.000,0.0729,
3891.000,0.073,
3890.000,0.0731,
3889.000,0.0732,
3888.000,0.0732,
3887.000,0.0732,
3886.000,0.0733,
3885.000,0.0734,
3884.000,0.0735,
3883.000,0.0734,
3882.000,0.0733,
3881.000,0.0732,
3880.000,0.0733,
3879.000,0.0733,
3878.000,0.0734,
3877.000,0.0734,
3876.000,0.0733,
3875.000,0.0733,
3874.000,0.0733,
3873.000,0.0734,
3872.000,0.0734,
3871.000,0.0734,
3870.000,0.0733,
3869.000,0.0733,
3868.000,0.0733,
3867.000,0.0733,
3866.000,0.0731,
3865.000,0.073,
3864.000,0.073,
3863.000,0.073,
3862.000,0.073,
3861.000,0.0731,
3860.000,0.0731,
3859.000,0.0732,
3858.000,0.0733,
3857.000,0.0735,
3856.000,0.0739,
3855.000,0.0743,
3854.000,0.0746,
3853.000,0.0745,
3852.000,0.0743,
3851.000,0.0742,
3850.000,0.0741,
3849.000,0.0738,
3848.000,0.0735,
3847.000,0.0731,
3846.000,0.0727,
3845.000,0.0724,
3844.000,0.0722,
3843.000,0.0721,
3842.000,0.072,
3841.000,0.072,
3840.000,0.072,
3839.000,0.072,
3838.000,0.072,
3837.000,0.072,
3836.000,0.072,
3835.000,0.0719,
3834.000,0.0719,
3833.000,0.0718,
3832.000,0.0717,
3831.000,0.0716,
3830.000,0.0716,
3829.000,0.0716,
3828.000,0.0716,
3827.000,0.0717,
3826.000,0.0718,
3825.000,0.0719,
3824.000,0.072,
3823.000,0.072,
3822.000,0.072,
3821.000,0.0721,
3820.000,0.0723,
3819.000,0.0725,
3818.000,0.0726,
3817.000,0.0727,
3816.000,0.0728,
3815.000,0.073,
3814.000,0.0731,
3813.000,0.0731,
3812.000,0.0731,
3811.000,0.0731,
3810.000,0.0731,
3809.000,0.0731,
3808.000,0.0731,
3807.000,0.0731,
3806.000,0.0732,
3805.000,0.0734,
3804.000,0.0734,
3803.000,0.0735,
3802.000,0.0735,
3801.000,0.0736,
3800.000,0.0736,
3799.000,0.0736,
3798.000,0.0736,
3797.000,0.0736,
3796.000,0.0736,
3795.000,0.0737,
3794.000,0.0738,
3793.000,0.0739,
3792.000,0.074,
3791.000,0.0741,
3790.000,0.0743,
3789.000,0.0744,
3788.000,0.0744,
3787.000,0.0745,
3786.000,0.0745,
3785.000,0.0746,
3784.000,0.0746,
3783.000,0.0747,
3782.000,0.0747,
3781.000,0.0747,
3780.000,0.0747,
3779.000,0.0747,
3778.000,0.0748,
3777.000,0.0748,
3776.000,0.0748,
3775.000,0.0748,
3774.000,0.0748,
3773.000,0.0748,
3772.000,0.0749,
3771.000,0.0748,
3770.000,0.0748,
3769.000,0.0748,
3768.000,0.0748,
3767.000,0.0747,
3766.000,0.0746,
3765.000,0.0746,
3764.000,0.0746,
3763.000,0.0745,
3762.000,0.0744,
3761.000,0.0743,
3760.000,0.0742,
3759.000,0.0741,
3758.000,0.0739,
3757.000,0.0738,
3756.000,0.0737,
3755.000,0.0737,
3754.000,0.0737,
3753.000,0.0737,
3752.000,0.0737,
3751.000,0.0736,
3750.000,0.0735,
3749.000,0.0732,
3748.000,0.0731,
3747.000,0.0729,
3746.000,0.0727,
3745.000,0.0725,
3744.000,0.0724,
3743.000,0.0723,
3742.000,0.0722,
3741.000,0.0721,
3740.000,0.0719,
3739.000,0.0718,
3738.000,0.0716,
3737.000,0.0714,
3736.000,0.0713,
3735.000,0.0713,
3734.000,0.0715,
3733.000,0.0717,
3732.000,0.0718,
3731.000,0.072,
3730.000,0.0722,
3729.000,0.0722,
3728.000,0.0722,
3727.000,0.0722,
3726.000,0.0721,
3725.000,0.0721,
3724.000,0.0721,
3723.000,0.072,
3722.000,0.0721,
3721.000,0.0721,
3720.000,0.0722,
3719.000,0.0723,
3718.000,0.0723,
3717.000,0.0724,
3716.000,0.0724,
3715.000,0.0724,
3714.000,0.0723,
3713.000,0.0723,
3712.000,0.0722,
3711.000,0.0721,
3710.000,0.0721,
3709.000,0.0722,
3708.000,0.0722,
3707.000,0.0723,
3706.000,0.0724,
3705.000,0.0724,
3704.000,0.0725,
3703.000,0.0726,
3702.000,0.0727,
3701.000,0.0728,
3700.000,0.0729,
3699.000,0.073,
3698.000,0.0731,
3697.000,0.0732,
3696.000,0.0733,
3695.000,0.0734,
3694.000,0.0734,
3693.000,0.0735,
3692.000,0.0736,
3691.000,0.0738,
3690.000,0.0741,
3689.000,0.0743,
3688.000,0.0744,
3687.000,0.0745,
3686.000,0.0744,
3685.000,0.0743,
3684.000,0.0742,
3683.000,0.0741,
3682.000,0.0739,
3681.000,0.0738,
3680.000,0.0737,
3679.000,0.0738,
3678.000,0.0739,
3677.000,0.074,
3676.000,0.074,
3675.000,0.074,
3674.000,0.0741,
3673.000,0.0742,
3672.000,0.0742,
3671.000,0.0742,
3670.000,0.0743,
3669.000,0.0744,
3668.000,0.0746,
3667.000,0.0747,
3666.000,0.0748,
3665.000,0.0749,
3664.000,0.075,
3663.000,0.0752,
3662.000,0.0753,
3661.000,0.0755,
3660.000,0.0757,
3659.000,0.0759,
3658.000,0.0761,
3657.000,0.0762,
3656.000,0.0764,
3655.000,0.0765,
3654.000,0.0767,
3653.000,0.0768,
3652.000,0.0769,
3651.000,0.077,
3650.000,0.0771,
3649.000,0.0772,
3648.000,0.0772,
3647.000,0.0773,
3646.000,0.0775,
3645.000,0.0777,
3644.000,0.0779,
3643.000,0.0781,
3642.000,0.0783,
3641.000,0.0786,
3640.000,0.0789,
3639.000,0.0791,
3638.000,0.0793,
3637.000,0.0795,
3636.000,0.0797,
3635.000,0.0799,
3634.000,0.0801,
3633.000,0.0803,
3632.000,0.0805,
3631.000,0.0806,
3630.000,0.0807,
3629.000,0.0808,
3628.000,0.081,
3627.000,0.0812,
3626.000,0.0814,
3625.000,0.0815,
3624.000,0.0817,
3623.000,0.0819,
3622.000,0.082,
3621.000,0.0822,
3620.000,0.0824,
3619.000,0.0826,
3618.000,0.0827,
3617.000,0.0827,
3616.000,0.0827,
3615.000,0.0826,
3614.000,0.0826,
3613.000,0.0826,
3612.000,0.0826,
3611.000,0.0826,
3610.000,0.0825,
3609.000,0.0825,
3608.000,0.0825,
3607.000,0.0825,
3606.000,0.0826,
3605.000,0.0826,
3604.000,0.0826,
3603.000,0.0826,
3602.000,0.0825,
3601.000,0.0825,
3600.000,0.0825,
3599.000,0.0825,
3598.000,0.0824,
3597.000,0.0823,
3596.000,0.0822,
3595.000,0.0821,
3594.000,0.0821,
3593.000,0.082,
3592.000,0.082,
3591.000,0.0819,
3590.000,0.0818,
3589.000,0.0817,
3588.000,0.0815,
3587.000,0.0814,
3586.000,0.0814,
3585.000,0.0813,
3584.000,0.0813,
3583.000,0.0813,
3582.000,0.0813,
3581.000,0.0814,
3580.000,0.0814,
3579.000,0.0814,
3578.000,0.0814,
3577.000,0.0814,
3576.000,0.0814,
3575.000,0.0814,
3574.000,0.0813,
3573.000,0.0813,
3572.000,0.0812,
3571.000,0.0812,
3570.000,0.081,
3569.000,0.0809,
3568.000,0.0807,
3567.000,0.0805,
3566.000,0.0804,
3565.000,0.0803,
3564.000,0.0803,
3563.000,0.0803,
3562.000,0.0804,
3561.000,0.0806,
3560.000,0.0807,
3559.000,0.0808,
3558.000,0.0809,
3557.000,0.081,
3556.000,0.081,
3555.000,0.0811,
3554.000,0.0811,
3553.000,0.0812,
3552.000,0.0812,
3551.000,0.0812,
3550.000,0.0813,
3549.000,0.0813,
3548.000,0.0813,
3547.000,0.0812,
3546.000,0.0812,
3545.000,0.0813,
3544.000,0.0813,
3543.000,0.0814,
3542.000,0.0814,
3541.000,0.0816,
3540.000,0.0817,
3539.000,0.0818,
3538.000,0.0819,
3537.000,0.082,
3536.000,0.0821,
3535.000,0.0821,
3534.000,0.0822,
3533.000,0.0822,
3532.000,0.0823,
3531.000,0.0823,
3530.000,0.0824,
3529.000,0.0824,
3528.000,0.0824,
3527.000,0.0824,
3526.000,0.0824,
3525.000,0.0824,
3524.000,0.0824,
3523.000,0.0825,
3522.000,0.0825,
3521.000,0.0826,
3520.000,0.0827,
3519.000,0.0828,
3518.000,0.0829,
3517.000,0.0829,
3516.000,0.083,
3515.000,0.083,
3514.000,0.0829,
3513.000,0.0829,
3512.000,0.0829,
3511.000,0.0828,
3510.000,0.0828,
3509.000,0.0827,
3508.000,0.0826,
3507.000,0.0826,
3506.000,0.0825,
3505.000,0.0824,
3504.000,0.0823,
3503.000,0.0822,
3502.000,0.0821,
3501.000,0.0821,
3500.000,0.082,
3499.000,0.082,
3498.000,0.0819,
3497.000,0.0819,
3496.000,0.0818,
3495.000,0.0818,
3494.000,0.0817,
3493.000,0.0817,
3492.000,0.0817,
3491.000,0.0817,
3490.000,0.0817,
3489.000,0.0816,
3488.000,0.0816,
3487.000,0.0816,
3486.000,0.0816,
3485.000,0.0816,
3484.000,0.0817,
3483.000,0.0817,
3482.000,0.0817,
3481.000,0.0817,
3480.000,0.0817,
3479.000,0.0818,
3478.000,0.0818,
3477.000,0.0818,
3476.000,0.0819,
3475.000,0.0819,
3474.000,0.082,
3473.000,0.082,
3472.000,0.082,
3471.000,0.082,
3470.000,0.082,
3469.000,0.082,
3468.000,0.082,
3467.000,0.082,
3466.000,0.0821,
3465.000,0.0821,
3464.000,0.0822,
3463.000,0.0823,
3462.000,0.0824,
3461.000,0.0825,
3460.000,0.0825,
3459.000,0.0826,
3458.000,0.0827,
3457.000,0.0829,
3456.000,0.083,
3455.000,0.0832,
3454.000,0.0834,
3453.000,0.0836,
3452.000,0.0838,
3451.000,0.084,
3450.000,0.0843,
3449.000,0.0845,
3448.000,0.0848,
3447.000,0.0851,
3446.000,0.0854,
3445.000,0.0858,
3444.000,0.0862,
3443.000,0.0867,
3442.000,0.0872,
3441.000,0.0877,
3440.000,0.0882,
3439.000,0.0888,
3438.000,0.0893,
3437.000,0.0899,
3436.000,0.0906,
3435.000,0.0913,
3434.000,0.0922,
3433.000,0.0931,
3432.000,0.094,
3431.000,0.0951,
3430.000,0.0962,
3429.000,0.0974,
3428.000,0.0987,
3427.000,0.1001,
3426.000,0.1016,
3425.000,0.1032,
3424.000,0.1049,
3423.000,0.1066,
3422.000,0.1085,
3421.000,0.1105,
3420.000,0.1126,
3419.000,0.1148,
3418.000,0.1171,
3417.000,0.1194,
3416.000,0.1218,
3415.000,0.1241,
3414.000,0.1264,
3413.000,0.1286,
3412.000,0.1307,
3411.000,0.1327,
3410.000,0.1344,
3409.000,0.1358,
3408.000,0.137,
3407.000,0.1377,
3406.000,0.138,
3405.000,0.1379,
3404.000,0.1374,
3403.000,0.1364,
3402.000,0.1349,
3401.000,0.133,
3400.000,0.1309,
3399.000,0.1285,
3398.000,0.126,
3397.000,0.1234,
3396.000,0.1207,
3395.000,0.1181,
3394.000,0.1154,
3393.000,0.1129,
3392.000,0.1104,
3391.000,0.1082,
3390.000,0.106,
3389.000,0.1041,
3388.000,0.1023,
3387.000,0.1006,
3386.000,0.0991,
3385.000,0.0976,
3384.000,0.0962,
3383.000,0.0949,
3382.000,0.0937,
3381.000,0.0926,
3380.000,0.0916,
3379.000,0.0906,
3378.000,0.0897,
3377.000,0.0889,
3376.000,0.0882,
3375.000,0.0875,
3374.000,0.0869,
3373.000,0.0863,
3372.000,0.0859,
3371.000,0.0854,
3370.000,0.085,
3369.000,0.0846,
3368.000,0.0843,
3367.000,0.084,
3366.000,0.0837,
3365.000,0.0835,
3364.000,0.0833,
3363.000,0.0831,
3362.000,0.0829,
3361.000,0.0827,
3360.000,0.0825,
3359.000,0.0824,
3358.000,0.0822,
3357.000,0.0821,
3356.000,0.082,
3355.000,0.0819,
3354.000,0.0818,
3353.000,0.0817,
3352.000,0.0816,
3351.000,0.0815,
3350.000,0.0813,
3349.000,0.0812,
3348.000,0.0811,
3347.000,0.081,
3346.000,0.0809,
3345.000,0.0808,
3344.000,0.0806,
3343.000,0.0805,
3342.000,0.0803,
3341.000,0.0802,
3340.000,0.08,
3339.000,0.0798,
3338.000,0.0797,
3337.000,0.0795,
3336.000,0.0794,
3335.000,0.0793,
3334.000,0.0792,
3333.000,0.0791,
3332.000,0.0789,
3331.000,0.0788,
3330.000,0.0787,
3329.000,0.0786,
3328.000,0.0784,
3327.000,0.0783,
3326.000,0.0781,
3325.000,0.078,
3324.000,0.0779,
3323.000,0.0777,
3322.000,0.0776,
3321.000,0.0774,
3320.000,0.0773,
3319.000,0.0772,
3318.000,0.0771,
3317.000,0.077,
3316.000,0.0769,
3315.000,0.0769,
3314.000,0.0768,
3313.000,0.0767,
3312.000,0.0766,
3311.000,0.0766,
3310.000,0.0765,
3309.000,0.0765,
3308.000,0.0764,
3307.000,0.0764,
3306.000,0.0764,
3305.000,0.0763,
3304.000,0.0763,
3303.000,0.0762,
3302.000,0.0762,
3301.000,0.0761,
3300.000,0.0761,
3299.000,0.0761,
3298.000,0.076,
3297.000,0.076,
3296.000,0.076,
3295.000,0.0759,
3294.000,0.0759,
3293.000,0.0759,
3292.000,0.0758,
3291.000,0.0758,
3290.000,0.0758,
3289.000,0.0758,
3288.000,0.0757,
3287.000,0.0758,
3286.000,0.0758,
3285.000,0.0758,
3284.000,0.0758,
3283.000,0.0758,
3282.000,0.0759,
3281.000,0.0759,
3280.000,0.0759,
3279.000,0.0759,
3278.000,0.076,
3277.000,0.0761,
3276.000,0.0761,
3275.000,0.0762,
3274.000,0.0763,
3273.000,0.0763,
3272.000,0.0764,
3271.000,0.0764,
3270.000,0.0765,
3269.000,0.0765,
3268.000,0.0766,
3267.000,0.0767,
3266.000,0.0767,
3265.000,0.0768,
3264.000,0.0768,
3263.000,0.0769,
3262.000,0.077,
3261.000,0.077,
3260.000,0.0771,
3259.000,0.0772,
3258.000,0.0772,
3257.000,0.0773,
3256.000,0.0774,
3255.000,0.0774,
3254.000,0.0775,
3253.000,0.0776,
3252.000,0.0776,
3251.000,0.0777,
3250.000,0.0778,
3249.000,0.0778,
3248.000,0.0779,
3247.000,0.078,
3246.000,0.078,
3245.000,0.078,
3244.000,0.078,
3243.000,0.078,
3242.000,0.0781,
3241.000,0.0781,
3240.000,0.0781,
3239.000,0.0781,
3238.000,0.0781,
3237.000,0.0781,
3236.000,0.0781,
3235.000,0.0781,
3234.000,0.0781,
3233.000,0.078,
3232.000,0.078,
3231.000,0.0779,
3230.000,0.0778,
3229.000,0.0778,
3228.000,0.0777,
3227.000,0.0777,
3226.000,0.0776,
3225.000,0.0776,
3224.000,0.0775,
3223.000,0.0775,
3222.000,0.0775,
3221.000,0.0774,
3220.000,0.0774,
3219.000,0.0773,
3218.000,0.0773,
3217.000,0.0772,
3216.000,0.0772,
3215.000,0.0771,
3214.000,0.077,
3213.000,0.077,
3212.000,0.0769,
3211.000,0.0768,
3210.000,0.0767,
3209.000,0.0766,
3208.000,0.0766,
3207.000,0.0765,
3206.000,0.0764,
3205.000,0.0763,
3204.000,0.0763,
3203.000,0.0762,
3202.000,0.0761,
3201.000,0.0761,
3200.000,0.076,
3199.000,0.0759,
3198.000,0.0759,
3197.000,0.0758,
3196.000,0.0758,
3195.000,0.0758,
3194.000,0.0757,
3193.000,0.0757,
3192.000,0.0757,
3191.000,0.0757,
3190.000,0.0757,
3189.000,0.0758,
3188.000,0.0758,
3187.000,0.0758,
3186.000,0.0759,
3185.000,0.0759,
3184.000,0.076,
3183.000,0.0761,
3182.000,0.0762,
3181.000,0.0763,
3180.000,0.0764,
3179.000,0.0765,
3178.000,0.0766,
3177.000,0.0766,
3176.000,0.0767,
3175.000,0.0768,
3174.000,0.0769,
3173.000,0.0769,
3172.000,0.077,
3171.000,0.0771,
3170.000,0.0771,
3169.000,0.0772,
3168.000,0.0772,
3167.000,0.0773,
3166.000,0.0773,
3165.000,0.0773,
3164.000,0.0774,
3163.000,0.0774,
3162.000,0.0775,
3161.000,0.0775,
3160.000,0.0776,
3159.000,0.0777,
3158.000,0.0778,
3157.000,0.0779,
3156.000,0.078,
3155.000,0.0781,
3154.000,0.0782,
3153.000,0.0784,
3152.000,0.0785,
3151.000,0.0786,
3150.000,0.0788,
3149.000,0.0789,
3148.000,0.079,
3147.000,0.0791,
3146.000,0.0792,
3145.000,0.0793,
3144.000,0.0794,
3143.000,0.0796,
3142.000,0.0797,
3141.000,0.0798,
3140.000,0.0799,
3139.000,0.08,
3138.000,0.0801,
3137.000,0.0802,
3136.000,0.0802,
3135.000,0.0803,
3134.000,0.0804,
3133.000,0.0805,
3132.000,0.0806,
3131.000,0.0807,
3130.000,0.0808,
3129.000,0.0808,
3128.000,0.0809,
3127.000,0.081,
3126.000,0.081,
3125.000,0.0811,
3124.000,0.0811,
3123.000,0.0812,
3122.000,0.0813,
3121.000,0.0813,
3120.000,0.0814,
3119.000,0.0814,
3118.000,0.0815,
3117.000,0.0815,
3116.000,0.0815,
3115.000,0.0815,
3114.000,0.0815,
3113.000,0.0815,
3112.000,0.0816,
3111.000,0.0816,
3110.000,0.0817,
3109.000,0.0817,
3108.000,0.0818,
3107.000,0.0818,
3106.000,0.0818,
3105.000,0.0819,
3104.000,0.0819,
3103.000,0.082,
3102.000,0.082,
3101.000,0.0821,
3100.000,0.0822,
3099.000,0.0823,
3098.000,0.0824,
3097.000,0.0826,
3096.000,0.0827,
3095.000,0.0828,
3094.000,0.083,
3093.000,0.0831,
3092.000,0.0833,
3091.000,0.0835,
3090.000,0.0838,
3089.000,0.084,
3088.000,0.0842,
3087.000,0.0844,
3086.000,0.0847,
3085.000,0.0849,
3084.000,0.0852,
3083.000,0.0854,
3082.000,0.0857,
3081.000,0.086,
3080.000,0.0863,
3079.000,0.0866,
3078.000,0.0868,
3077.000,0.0871,
3076.000,0.0875,
3075.000,0.0878,
3074.000,0.0882,
3073.000,0.0886,
3072.000,0.089,
3071.000,0.0895,
3070.000,0.09,
3069.000,0.0905,
3068.000,0.0911,
3067.000,0.0917,
3066.000,0.0923,
3065.000,0.0929,
3064.000,0.0935,
3063.000,0.0941,
3062.000,0.0946,
3061.000,0.0952,
3060.000,0.0957,
3059.000,0.0962,
3058.000,0.0966,
3057.000,0.0971,
3056.000,0.0974,
3055.000,0.0978,
3054.000,0.0982,
3053.000,0.0985,
3052.000,0.0988,
3051.000,0.099,
3050.000,0.0992,
3049.000,0.0994,
3048.000,0.0996,
3047.000,0.0998,
3046.000,0.1,
3045.000,0.1002,
3044.000,0.1005,
3043.000,0.1008,
3042.000,0.1012,
3041.000,0.1017,
3040.000,0.1022,
3039.000,0.1028,
3038.000,0.1034,
3037.000,0.1041,
3036.000,0.105,
3035.000,0.1058,
3034.000,0.1068,
3033.000,0.1077,
3032.000,0.1087,
3031.000,0.1097,
3030.000,0.1107,
3029.000,0.1117,
3028.000,0.1127,
3027.000,0.1137,
3026.000,0.1146,
3025.000,0.1155,
3024.000,0.1165,
3023.000,0.1174,
3022.000,0.1182,
3021.000,0.1191,
3020.000,0.12,
3019.000,0.1209,
3018.000,0.1218,
3017.000,0.1227,
3016.000,0.1237,
3015.000,0.1247,
3014.000,0.1258,
3013.000,0.1269,
3012.000,0.1281,
3011.000,0.1294,
3010.000,0.1308,
3009.000,0.1324,
3008.000,0.134,
3007.000,0.1358,
3006.000,0.1378,
3005.000,0.14,
3004.000,0.1423,
3003.000,0.1449,
3002.000,0.1477,
3001.000,0.1507,
3000.000,0.154,
2999.000,0.1575,
2998.000,0.1614,
2997.000,0.1657,
2996.000,0.1703,
2995.000,0.1753,
2994.000,0.1808,
2993.000,0.1868,
2992.000,0.1934,
2991.000,0.2006,
2990.000,0.2084,
2989.000,0.2171,
2988.000,0.2266,
2987.000,0.237,
2986.000,0.2484,
2985.000,0.2609,
2984.000,0.2746,
2983.000,0.2896,
2982.000,0.3061,
2981.000,0.3241,
2980.000,0.344,
2979.000,0.3658,
2978.000,0.3898,
2977.000,0.4163,
2976.000,0.4453,
2975.000,0.4773,
2974.000,0.5123,
2973.000,0.5506,
2972.000,0.5923,
2971.000,0.6375,
2970.000,0.6862,
2969.000,0.7381,
2968.000,0.793,
2967.000,0.8506,
2966.000,0.9107,
2965.000,0.9728,
2964.000,1.0364,
2963.000,1.1007,
2962.000,1.1649,
2961.000,1.2279,
2960.000,1.2885,
2959.000,1.3459,
2958.000,1.3993,
2957.000,1.4483,
2956.000,1.493,
2955.000,1.5343,
2954.000,1.5734,
2953.000,1.6113,
2952.000,1.6488,
2951.000,1.6869,
2950.000,1.7268,
2949.000,1.7693,
2948.000,1.8146,
2947.000,1.862,
2946.000,1.9101,
2945.000,1.9566,
2944.000,1.9996,
2943.000,2.038,
2942.000,2.0714,
2941.000,2.0993,
2940.000,2.1213,
2939.000,2.1381,
2938.000,2.1494,
2937.000,2.1534,
2936.000,2.1489,
2935.000,2.1364,
2934.000,2.1159,
2933.000,2.0865,
2932.000,2.0478,
2931.000,2.0002,
2930.000,1.9449,
2929.000,1.8824,
2928.000,1.8146,
2927.000,1.7442,
2926.000,1.6735,
2925.000,1.6038,
2924.000,1.5357,
2923.000,1.4692,
2922.000,1.4044,
2921.000,1.3411,
2920.000,1.2793,
2919.000,1.2193,
2918.000,1.1618,
2917.000,1.1072,
2916.000,1.0562,
2915.000,1.0094,
2914.000,0.967,
2913.000,0.9293,
2912.000,0.8963,
2911.000,0.8676,
2910.000,0.8431,
2909.000,0.822,
2908.000,0.8035,
2907.000,0.7868,
2906.000,0.7714,
2905.000,0.7566,
2904.000,0.7419,
2903.000,0.7273,
2902.000,0.7127,
2901.000,0.6983,
2900.000,0.6843,
2899.000,0.6711,
2898.000,0.6587,
2897.000,0.6473,
2896.000,0.6368,
2895.000,0.6273,
2894.000,0.6187,
2893.000,0.6109,
2892.000,0.6039,
2891.000,0.5976,
2890.000,0.592,
2889.000,0.5875,
2888.000,0.5842,
2887.000,0.5825,
2886.000,0.5827,
2885.000,0.585,
2884.000,0.5897,
2883.000,0.5967,
2882.000,0.6061,
2881.000,0.6178,
2880.000,0.632,
2879.000,0.6486,
2878.000,0.668,
2877.000,0.6905,
2876.000,0.7162,
2875.000,0.7455,
2874.000,0.7788,
2873.000,0.816,
2872.000,0.8573,
2871.000,0.9026,
2870.000,0.9516,
2869.000,1.0034,
2868.000,1.0565,
2867.000,1.1087,
2866.000,1.1572,
2865.000,1.1985,
2864.000,1.229,
2863.000,1.2456,
2862.000,1.2466,
2861.000,1.2318,
2860.000,1.2024,
2859.000,1.1607,
2858.000,1.1094,
2857.000,1.0511,
2856.000,0.988,
2855.000,0.9222,
2854.000,0.8556,
2853.000,0.7899,
2852.000,0.7265,
2851.000,0.6667,
2850.000,0.6112,
2849.000,0.5606,
2848.000,0.5151,
2847.000,0.4746,
2846.000,0.4389,
2845.000,0.4076,
2844.000,0.3805,
2843.000,0.3571,
2842.000,0.337,
2841.000,0.3198,
2840.000,0.3053,
2839.000,0.2931,
2838.000,0.283,
2837.000,0.2747,
2836.000,0.2681,
2835.000,0.2628,
2834.000,0.2587,
2833.000,0.2555,
2832.000,0.2529,
2831.000,0.2508,
2830.000,0.2488,
2829.000,0.2467,
2828.000,0.2443,
2827.000,0.2413,
2826.000,0.2378,
2825.000,0.2335,
2824.000,0.2284,
2823.000,0.2228,
2822.000,0.2167,
2821.000,0.2103,
2820.000,0.2037,
2819.000,0.1971,
2818.000,0.1907,
2817.000,0.1845,
2816.000,0.1787,
2815.000,0.1733,
2814.000,0.1684,
2813.000,0.1639,
2812.000,0.1599,
2811.000,0.1564,
2810.000,0.1531,
2809.000,0.1502,
2808.000,0.1475,
2807.000,0.145,
2806.000,0.1428,
2805.000,0.1408,
2804.000,0.1393,
2803.000,0.138,
2802.000,0.1372,
2801.000,0.1367,
2800.000,0.1365,
2799.000,0.1364,
2798.000,0.1363,
2797.000,0.1358,
2796.000,0.1351,
2795.000,0.1338,
2794.000,0.1321,
2793.000,0.1299,
2792.000,0.1275,
2791.000,0.125,
2790.000,0.1224,
2789.000,0.12,
2788.000,0.1177,
2787.000,0.1157,
2786.000,0.1138,
2785.000,0.1122,
2784.000,0.1108,
2783.000,0.1095,
2782.000,0.1085,
2781.000,0.1076,
2780.000,0.1068,
2779.000,0.1061,
2778.000,0.1054,
2777.000,0.1048,
2776.000,0.1041,
2775.000,0.1034,
2774.000,0.1027,
2773.000,0.102,
2772.000,0.1013,
2771.000,0.1006,
2770.000,0.1001,
2769.000,0.0996,
2768.000,0.0992,
2767.000,0.0989,
2766.000,0.0986,
2765.000,0.0984,
2764.000,0.0981,
2763.000,0.0979,
2762.000,0.0975,
2761.000,0.0971,
2760.000,0.0965,
2759.000,0.0957,
2758.000,0.0948,
2757.000,0.0938,
2756.000,0.0927,
2755.000,0.0916,
2754.000,0.0906,
2753.000,0.0896,
2752.000,0.0887,
2751.000,0.088,
2750.000,0.0873,
2749.000,0.0868,
2748.000,0.0863,
2747.000,0.0859,
2746.000,0.0856,
2745.000,0.0853,
2744.000,0.085,
2743.000,0.0848,
2742.000,0.0846,
2741.000,0.0844,
2740.000,0.0843,
2739.000,0.0842,
2738.000,0.0841,
2737.000,0.0841,
2736.000,0.0841,
2735.000,0.084,
2734.000,0.084,
2733.000,0.0839,
2732.000,0.0838,
2731.000,0.0837,
2730.000,0.0835,
2729.000,0.0833,
2728.000,0.083,
2727.000,0.0828,
2726.000,0.0825,
2725.000,0.0823,
2724.000,0.0821,
2723.000,0.0819,
2722.000,0.0818,
2721.000,0.0818,
2720.000,0.0818,
2719.000,0.0818,
2718.000,0.0819,
2717.000,0.0821,
2716.000,0.0822,
2715.000,0.0822,
2714.000,0.0823,
2713.000,0.0823,
2712.000,0.0823,
2711.000,0.0823,
2710.000,0.0823,
2709.000,0.0824,
2708.000,0.0824,
2707.000,0.0825,
2706.000,0.0826,
2705.000,0.0828,
2704.000,0.0829,
2703.000,0.0831,
2702.000,0.0833,
2701.000,0.0835,
2700.000,0.0838,
2699.000,0.0841,
2698.000,0.0845,
2697.000,0.0848,
2696.000,0.0852,
2695.000,0.0856,
2694.000,0.0861,
2693.000,0.0865,
2692.000,0.087,
2691.000,0.0876,
2690.000,0.0882,
2689.000,0.089,
2688.000,0.09,
2687.000,0.0912,
2686.000,0.0927,
2685.000,0.0944,
2684.000,0.0964,
2683.000,0.0987,
2682.000,0.1013,
2681.000,0.1041,
2680.000,0.1071,
2679.000,0.1101,
2678.000,0.113,
2677.000,0.1156,
2676.000,0.1178,
2675.000,0.1194,
2674.000,0.1206,
2673.000,0.1214,
2672.000,0.122,
2671.000,0.1223,
2670.000,0.1223,
2669.000,0.1219,
2668.000,0.1209,
2667.000,0.1192,
2666.000,0.117,
2665.000,0.1143,
2664.000,0.1114,
2663.000,0.1086,
2662.000,0.1059,
2661.000,0.1037,
2660.000,0.1018,
2659.000,0.1004,
2658.000,0.0993,
2657.000,0.0986,
2656.000,0.0981,
2655.000,0.0979,
2654.000,0.0978,
2653.000,0.0977,
2652.000,0.0977,
2651.000,0.0976,
2650.000,0.0974,
2649.000,0.0971,
2648.000,0.0967,
2647.000,0.0961,
2646.000,0.0954,
2645.000,0.0945,
2644.000,0.0934,
2643.000,0.0923,
2642.000,0.0911,
2641.000,0.0898,
2640.000,0.0886,
2639.000,0.0875,
2638.000,0.0864,
2637.000,0.0855,
2636.000,0.0846,
2635.000,0.0839,
2634.000,0.0833,
2633.000,0.0829,
2632.000,0.0825,
2631.000,0.0822,
2630.000,0.0821,
2629.000,0.082,
2628.000,0.082,
2627.000,0.0821,
2626.000,0.0823,
2625.000,0.0826,
2624.000,0.0829,
2623.000,0.0833,
2622.000,0.0838,
2621.000,0.0843,
2620.000,0.0848,
2619.000,0.0853,
2618.000,0.0859,
2617.000,0.0864,
2616.000,0.0869,
2615.000,0.0874,
2614.000,0.0877,
2613.000,0.0881,
2612.000,0.0883,
2611.000,0.0884,
2610.000,0.0884,
2609.000,0.0883,
2608.000,0.0879,
2607.000,0.0874,
2606.000,0.0867,
2605.000,0.0859,
2604.000,0.0851,
2603.000,0.0843,
2602.000,0.0835,
2601.000,0.0828,
2600.000,0.0821,
2599.000,0.0815,
2598.000,0.081,
2597.000,0.0806,
2596.000,0.0803,
2595.000,0.08,
2594.000,0.0799,
2593.000,0.0798,
2592.000,0.0798,
2591.000,0.0798,
2590.000,0.0798,
2589.000,0.0799,
2588.000,0.08,
2587.000,0.0802,
2586.000,0.0802,
2585.000,0.0803,
2584.000,0.0803,
2583.000,0.0804,
2582.000,0.0803,
2581.000,0.0803,
2580.000,0.0803,
2579.000,0.0804,
2578.000,0.0804,
2577.000,0.0805,
2576.000,0.0806,
2575.000,0.0807,
2574.000,0.0808,
2573.000,0.0809,
2572.000,0.081,
2571.000,0.0811,
2570.000,0.0811,
2569.000,0.0811,
2568.000,0.0811,
2567.000,0.081,
2566.000,0.0808,
2565.000,0.0806,
2564.000,0.0804,
2563.000,0.0801,
2562.000,0.0798,
2561.000,0.0794,
2560.000,0.0791,
2559.000,0.0787,
2558.000,0.0784,
2557.000,0.0781,
2556.000,0.0779,
2555.000,0.0777,
2554.000,0.0775,
2553.000,0.0774,
2552.000,0.0773,
2551.000,0.0773,
2550.000,0.0773,
2549.000,0.0773,
2548.000,0.0774,
2547.000,0.0776,
2546.000,0.0777,
2545.000,0.0779,
2544.000,0.0781,
2543.000,0.0783,
2542.000,0.0785,
2541.000,0.0786,
2540.000,0.0788,
2539.000,0.0789,
2538.000,0.079,
2537.000,0.0792,
2536.000,0.0793,
2535.000,0.0794,
2534.000,0.0795,
2533.000,0.0796,
2532.000,0.0797,
2531.000,0.0797,
2530.000,0.0797,
2529.000,0.0797,
2528.000,0.0796,
2527.000,0.0795,
2526.000,0.0794,
2525.000,0.0793,
2524.000,0.0792,
2523.000,0.079,
2522.000,0.0787,
2521.000,0.0784,
2520.000,0.078,
2519.000,0.0776,
2518.000,0.0772,
2517.000,0.0767,
2516.000,0.0763,
2515.000,0.0759,
2514.000,0.0756,
2513.000,0.0752,
2512.000,0.075,
2511.000,0.0747,
2510.000,0.0744,
2509.000,0.0742,
2508.000,0.074,
2507.000,0.0739,
2506.000,0.0738,
2505.000,0.0736,
2504.000,0.0735,
2503.000,0.0735,
2502.000,0.0734,
2501.000,0.0733,
2500.000,0.0732,
2499.000,0.0732,
2498.000,0.0731,
2497.000,0.0731,
2496.000,0.0731,
2495.000,0.0731,
2494.000,0.0732,
2493.000,0.0732,
2492.000,0.0732,
2491.000,0.0733,
2490.000,0.0733,
2489.000,0.0734,
2488.000,0.0735,
2487.000,0.0735,
2486.000,0.0736,
2485.000,0.0737,
2484.000,0.0738,
2483.000,0.0739,
2482.000,0.074,
2481.000,0.0741,
2480.000,0.0742,
2479.000,0.0742,
2478.000,0.0743,
2477.000,0.0744,
2476.000,0.0746,
2475.000,0.0747,
2474.000,0.075,
2473.000,0.0752,
2472.000,0.0755,
2471.000,0.0759,
2470.000,0.0762,
2469.000,0.0766,
2468.000,0.0769,
2467.000,0.0772,
2466.000,0.0774,
2465.000,0.0775,
2464.000,0.0775,
2463.000,0.0775,
2462.000,0.0774,
2461.000,0.0772,
2460.000,0.0771,
2459.000,0.0769,
2458.000,0.0768,
2457.000,0.0767,
2456.000,0.0766,
2455.000,0.0765,
2454.000,0.0765,
2453.000,0.0765,
2452.000,0.0765,
2451.000,0.0765,
2450.000,0.0764,
2449.000,0.0764,
2448.000,0.0763,
2447.000,0.0761,
2446.000,0.076,
2445.000,0.0759,
2444.000,0.0758,
2443.000,0.0756,
2442.000,0.0755,
2441.000,0.0754,
2440.000,0.0753,
2439.000,0.0753,
2438.000,0.0752,
2437.000,0.0751,
2436.000,0.0751,
2435.000,0.0751,
2434.000,0.0752,
2433.000,0.0753,
2432.000,0.0755,
2431.000,0.0758,
2430.000,0.0762,
2429.000,0.0765,
2428.000,0.0768,
2427.000,0.0772,
2426.000,0.0774,
2425.000,0.0776,
2424.000,0.0777,
2423.000,0.0777,
2422.000,0.0777,
2421.000,0.0777,
2420.000,0.0776,
2419.000,0.0775,
2418.000,0.0774,
2417.000,0.0771,
2416.000,0.0769,
2415.000,0.0766,
2414.000,0.0762,
2413.000,0.0759,
2412.000,0.0756,
2411.000,0.0754,
2410.000,0.0752,
2409.000,0.0749,
2408.000,0.0747,
2407.000,0.0745,
2406.000,0.0743,
2405.000,0.0741,
2404.000,0.0739,
2403.000,0.0737,
2402.000,0.0736,
2401.000,0.0735,
2400.000,0.0735,
2399.000,0.0735,
2398.000,0.0735,
2397.000,0.0735,
2396.000,0.0735,
2395.000,0.0736,
2394.000,0.0736,
2393.000,0.0737,
2392.000,0.0738,
2391.000,0.0739,
2390.000,0.074,
2389.000,0.0742,
2388.000,0.0743,
2387.000,0.0745,
2386.000,0.0747,
2385.000,0.0748,
2384.000,0.075,
2383.000,0.0751,
2382.000,0.0753,
2381.000,0.0754,
2380.000,0.0755,
2379.000,0.0756,
2378.000,0.0758,
2377.000,0.0759,
2376.000,0.0761,
2375.000,0.0763,
2374.000,0.0764,
2373.000,0.0765,
2372.000,0.0765,
2371.000,0.0765,
2370.000,0.0765,
2369.000,0.0765,
2368.000,0.0765,
2367.000,0.0766,
2366.000,0.0767,
2365.000,0.0768,
2364.000,0.0769,
2363.000,0.0771,
2362.000,0.0773,
2361.000,0.0774,
2360.000,0.0775,
2359.000,0.0775,
2358.000,0.0776,
2357.000,0.0777,
2356.000,0.0778,
2355.000,0.078,
2354.000,0.0783,
2353.000,0.0789,
2352.000,0.0795,
2351.000,0.0799,
2350.000,0.0799,
2349.000,0.0793,
2348.000,0.0782,
2347.000,0.0771,
2346.000,0.0768,
2345.000,0.0775,
2344.000,0.0784,
2343.000,0.0789,
2342.000,0.0788,
2341.000,0.0785,
2340.000,0.0784,
2339.000,0.0783,
2338.000,0.0784,
2337.000,0.0784,
2336.000,0.0784,
2335.000,0.0783,
2334.000,0.0783,
2333.000,0.0783,
2332.000,0.0785,
2331.000,0.0788,
2330.000,0.0792,
2329.000,0.0794,
2328.000,0.0795,
2327.000,0.0793,
2326.000,0.0789,
2325.000,0.0785,
2324.000,0.0781,
2323.000,0.0779,
2322.000,0.0776,
2321.000,0.0774,
2320.000,0.0772,
2319.000,0.0769,
2318.000,0.0767,
2317.000,0.0764,
2316.000,0.0761,
2315.000,0.0759,
2314.000,0.0759,
2313.000,0.0759,
2312.000,0.076,
2311.000,0.076,
2310.000,0.076,
2309.000,0.0759,
2308.000,0.0758,
2307.000,0.0757,
2306.000,0.0756,
2305.000,0.0755,
2304.000,0.0755,
2303.000,0.0755,
2302.000,0.0756,
2301.000,0.0757,
2300.000,0.0758,
2299.000,0.0759,
2298.000,0.076,
2297.000,0.0762,
2296.000,0.0764,
2295.000,0.0765,
2294.000,0.0767,
2293.000,0.0767,
2292.000,0.0767,
2291.000,0.0767,
2290.000,0.0766,
2289.000,0.0764,
2288.000,0.0762,
2287.000,0.0759,
2286.000,0.0756,
2285.000,0.0752,
2284.000,0.0749,
2283.000,0.0746,
2282.000,0.0744,
2281.000,0.0742,
2280.000,0.0741,
2279.000,0.0741,
2278.000,0.0741,
2277.000,0.0742,
2276.000,0.0744,
2275.000,0.0745,
2274.000,0.0747,
2273.000,0.0748,
2272.000,0.0749,
2271.000,0.0749,
2270.000,0.0749,
2269.000,0.0748,
2268.000,0.0747,
2267.000,0.0745,
2266.000,0.0743,
2265.000,0.0741,
2264.000,0.074,
2263.000,0.0739,
2262.000,0.0738,
2261.000,0.0738,
2260.000,0.0739,
2259.000,0.074,
2258.000,0.0741,
2257.000,0.0742,
2256.000,0.0743,
2255.000,0.0743,
2254.000,0.0743,
2253.000,0.0743,
2252.000,0.0742,
2251.000,0.0742,
2250.000,0.0742,
2249.000,0.0743,
2248.000,0.0744,
2247.000,0.0746,
2246.000,0.0748,
2245.000,0.075,
2244.000,0.0751,
2243.000,0.0753,
2242.000,0.0754,
2241.000,0.0755,
2240.000,0.0756,
2239.000,0.0758,
2238.000,0.0759,
2237.000,0.076,
2236.000,0.0761,
2235.000,0.0761,
2234.000,0.0762,
2233.000,0.0762,
2232.000,0.0762,
2231.000,0.0762,
2230.000,0.0762,
2229.000,0.0762,
2228.000,0.0762,
2227.000,0.0762,
2226.000,0.0762,
2225.000,0.0762,
2224.000,0.0763,
2223.000,0.0763,
2222.000,0.0763,
2221.000,0.0763,
2220.000,0.0763,
2219.000,0.0763,
2218.000,0.0764,
2217.000,0.0765,
2216.000,0.0766,
2215.000,0.0767,
2214.000,0.0768,
2213.000,0.077,
2212.000,0.0771,
2211.000,0.0772,
2210.000,0.0772,
2209.000,0.0773,
2208.000,0.0773,
2207.000,0.0773,
2206.000,0.0773,
2205.000,0.0773,
2204.000,0.0773,
2203.000,0.0774,
2202.000,0.0774,
2201.000,0.0774,
2200.000,0.0773,
2199.000,0.0772,
2198.000,0.0771,
2197.000,0.077,
2196.000,0.0769,
2195.000,0.0768,
2194.000,0.0768,
2193.000,0.0769,
2192.000,0.077,
2191.000,0.0772,
2190.000,0.0774,
2189.000,0.0777,
2188.000,0.0781,
2187.000,0.0785,
2186.000,0.0789,
2185.000,0.0794,
2184.000,0.0799,
2183.000,0.0804,
2182.000,0.081,
2181.000,0.0817,
2180.000,0.0824,
2179.000,0.0832,
2178.000,0.084,
2177.000,0.0847,
2176.000,0.0852,
2175.000,0.0854,
2174.000,0.0852,
2173.000,0.0848,
2172.000,0.0842,
2171.000,0.0835,
2170.000,0.0826,
2169.000,0.0817,
2168.000,0.0808,
2167.000,0.08,
2166.000,0.0792,
2165.000,0.0784,
2164.000,0.0777,
2163.000,0.077,
2162.000,0.0764,
2161.000,0.0759,
2160.000,0.0755,
2159.000,0.0751,
2158.000,0.0747,
2157.000,0.0744,
2156.000,0.0741,
2155.000,0.0739,
2154.000,0.0738,
2153.000,0.0736,
2152.000,0.0735,
2151.000,0.0735,
2150.000,0.0734,
2149.000,0.0734,
2148.000,0.0734,
2147.000,0.0734,
2146.000,0.0735,
2145.000,0.0735,
2144.000,0.0736,
2143.000,0.0738,
2142.000,0.0739,
2141.000,0.0742,
2140.000,0.0745,
2139.000,0.0749,
2138.000,0.0752,
2137.000,0.0756,
2136.000,0.076,
2135.000,0.0764,
2134.000,0.0767,
2133.000,0.0769,
2132.000,0.077,
2131.000,0.077,
2130.000,0.077,
2129.000,0.0768,
2128.000,0.0765,
2127.000,0.0762,
2126.000,0.0759,
2125.000,0.0755,
2124.000,0.0753,
2123.000,0.075,
2122.000,0.0748,
2121.000,0.0747,
2120.000,0.0746,
2119.000,0.0746,
2118.000,0.0746,
2117.000,0.0745,
2116.000,0.0745,
2115.000,0.0745,
2114.000,0.0745,
2113.000,0.0745,
2112.000,0.0745,
2111.000,0.0745,
2110.000,0.0746,
2109.000,0.0746,
2108.000,0.0748,
2107.000,0.0749,
2106.000,0.0751,
2105.000,0.0754,
2104.000,0.0756,
2103.000,0.0759,
2102.000,0.0763,
2101.000,0.0766,
2100.000,0.077,
2099.000,0.0773,
2098.000,0.0777,
2097.000,0.078,
2096.000,0.0783,
2095.000,0.0785,
2094.000,0.0786,
2093.000,0.0786,
2092.000,0.0786,
2091.000,0.0785,
2090.000,0.0783,
2089.000,0.0781,
2088.000,0.0779,
2087.000,0.0775,
2086.000,0.0771,
2085.000,0.0766,
2084.000,0.0762,
2083.000,0.0758,
2082.000,0.0754,
2081.000,0.0751,
2080.000,0.0749,
2079.000,0.0748,
2078.000,0.0748,
2077.000,0.0748,
2076.000,0.075,
2075.000,0.0753,
2074.000,0.0757,
2073.000,0.0763,
2072.000,0.0769,
2071.000,0.0778,
2070.000,0.0787,
2069.000,0.0797,
2068.000,0.0807,
2067.000,0.0818,
2066.000,0.0829,
2065.000,0.0839,
2064.000,0.0847,
2063.000,0.0853,
2062.000,0.0855,
2061.000,0.0853,
2060.000,0.0848,
2059.000,0.0841,
2058.000,0.0831,
2057.000,0.082,
2056.000,0.0807,
2055.000,0.0795,
2054.000,0.0783,
2053.000,0.0771,
2052.000,0.076,
2051.000,0.0751,
2050.000,0.0743,
2049.000,0.0736,
2048.000,0.0729,
2047.000,0.0724,
2046.000,0.072,
2045.000,0.0716,
2044.000,0.0713,
2043.000,0.0711,
2042.000,0.0709,
2041.000,0.0708,
2040.000,0.0708,
2039.000,0.0708,
2038.000,0.0708,
2037.000,0.0709,
2036.000,0.0709,
2035.000,0.071,
2034.000,0.0711,
2033.000,0.0712,
2032.000,0.0712,
2031.000,0.0712,
2030.000,0.0713,
2029.000,0.0713,
2028.000,0.0714,
2027.000,0.0716,
2026.000,0.0717,
2025.000,0.0719,
2024.000,0.0721,
2023.000,0.0724,
2022.000,0.0726,
2021.000,0.0728,
2020.000,0.0729,
2019.000,0.0731,
2018.000,0.0732,
2017.000,0.0733,
2016.000,0.0734,
2015.000,0.0735,
2014.000,0.0736,
2013.000,0.0736,
2012.000,0.0736,
2011.000,0.0736,
2010.000,0.0737,
2009.000,0.0737,
2008.000,0.0736,
2007.000,0.0735,
2006.000,0.0733,
2005.000,0.0731,
2004.000,0.0729,
2003.000,0.0727,
2002.000,0.0725,
2001.000,0.0723,
2000.000,0.0722,
1999.000,0.0721,
1998.000,0.0721,
1997.000,0.072,
1996.000,0.072,
1995.000,0.072,
1994.000,0.072,
1993.000,0.0721,
1992.000,0.0723,
1991.000,0.0726,
1990.000,0.0729,
1989.000,0.0732,
1988.000,0.0736,
1987.000,0.0741,
1986.000,0.0747,
1985.000,0.0753,
1984.000,0.0761,
1983.000,0.0769,
1982.000,0.0777,
1981.000,0.0786,
1980.000,0.0794,
1979.000,0.0802,
1978.000,0.0809,
1977.000,0.0815,
1976.000,0.0819,
1975.000,0.0822,
1974.000,0.0823,
1973.000,0.0822,
1972.000,0.0819,
1971.000,0.0816,
1970.000,0.0811,
1969.000,0.0807,
1968.000,0.0803,
1967.000,0.0799,
1966.000,0.0796,
1965.000,0.0793,
1964.000,0.079,
1963.000,0.0787,
1962.000,0.0785,
1961.000,0.0783,
1960.000,0.0782,
1959.000,0.0781,
1958.000,0.078,
1957.000,0.078,
1956.000,0.0781,
1955.000,0.0782,
1954.000,0.0784,
1953.000,0.0786,
1952.000,0.0789,
1951.000,0.0792,
1950.000,0.0794,
1949.000,0.0797,
1948.000,0.0799,
1947.000,0.0801,
1946.000,0.0802,
1945.000,0.0803,
1944.000,0.0802,
1943.000,0.08,
1942.000,0.0798,
1941.000,0.0794,
1940.000,0.0789,
1939.000,0.0782,
1938.000,0.0774,
1937.000,0.0766,
1936.000,0.076,
1935.000,0.0754,
1934.000,0.0749,
1933.000,0.0745,
1932.000,0.0742,
1931.000,0.0739,
1930.000,0.0737,
1929.000,0.0734,
1928.000,0.0732,
1927.000,0.0731,
1926.000,0.0729,
1925.000,0.0728,
1924.000,0.0728,
1923.000,0.0728,
1922.000,0.0729,
1921.000,0.0731,
1920.000,0.0732,
1919.000,0.0733,
1918.000,0.0734,
1917.000,0.0736,
1916.000,0.0739,
1915.000,0.0741,
1914.000,0.0742,
1913.000,0.0742,
1912.000,0.0743,
1911.000,0.0744,
1910.000,0.0744,
1909.000,0.0744,
1908.000,0.0745,
1907.000,0.0744,
1906.000,0.0743,
1905.000,0.0742,
1904.000,0.074,
1903.000,0.0739,
1902.000,0.0738,
1901.000,0.0737,
1900.000,0.0736,
1899.000,0.0736,
1898.000,0.0735,
1897.000,0.0734,
1896.000,0.0734,
1895.000,0.0735,
1894.000,0.0736,
1893.000,0.0737,
1892.000,0.0739,
1891.000,0.0741,
1890.000,0.0744,
1889.000,0.0748,
1888.000,0.0754,
1887.000,0.0761,
1886.000,0.0768,
1885.000,0.0775,
1884.000,0.0783,
1883.000,0.0791,
1882.000,0.08,
1881.000,0.0809,
1880.000,0.0818,
1879.000,0.0828,
1878.000,0.0837,
1877.000,0.0847,
1876.000,0.0857,
1875.000,0.0867,
1874.000,0.0876,
1873.000,0.0884,
1872.000,0.089,
1871.000,0.0895,
1870.000,0.0896,
1869.000,0.0895,
1868.000,0.0892,
1867.000,0.0885,
1866.000,0.0876,
1865.000,0.0864,
1864.000,0.0851,
1863.000,0.0838,
1862.000,0.0826,
1861.000,0.0816,
1860.000,0.0807,
1859.000,0.08,
1858.000,0.0794,
1857.000,0.0789,
1856.000,0.0785,
1855.000,0.0781,
1854.000,0.0778,
1853.000,0.0775,
1852.000,0.0773,
1851.000,0.0772,
1850.000,0.0772,
1849.000,0.0773,
1848.000,0.0775,
1847.000,0.0779,
1846.000,0.0783,
1845.000,0.0788,
1844.000,0.0794,
1843.000,0.0801,
1842.000,0.0808,
1841.000,0.0815,
1840.000,0.0821,
1839.000,0.0827,
1838.000,0.0834,
1837.000,0.0842,
1836.000,0.0851,
1835.000,0.0861,
1834.000,0.0871,
1833.000,0.0881,
1832.000,0.0891,
1831.000,0.0901,
1830.000,0.091,
1829.000,0.092,
1828.000,0.0929,
1827.000,0.0938,
1826.000,0.0947,
1825.000,0.0956,
1824.000,0.0967,
1823.000,0.098,
1822.000,0.0995,
1821.000,0.101,
1820.000,0.1028,
1819.000,0.105,
1818.000,0.1075,
1817.000,0.1105,
1816.000,0.1138,
1815.000,0.1176,
1814.000,0.1216,
1813.000,0.1261,
1812.000,0.1309,
1811.000,0.1359,
1810.000,0.1409,
1809.000,0.1453,
1808.000,0.1489,
1807.000,0.1512,
1806.000,0.152,
1805.000,0.1514,
1804.000,0.1494,
1803.000,0.1463,
1802.000,0.1424,
1801.000,0.138,
1800.000,0.1334,
1799.000,0.1287,
1798.000,0.1243,
1797.000,0.1203,
1796.000,0.1169,
1795.000,0.1141,
1794.000,0.1118,
1793.000,0.1099,
1792.000,0.1083,
1791.000,0.1074,
1790.000,0.107,
1789.000,0.1069,
1788.000,0.1069,
1787.000,0.1071,
1786.000,0.1077,
1785.000,0.1087,
1784.000,0.1103,
1783.000,0.1123,
1782.000,0.1145,
1781.000,0.117,
1780.000,0.1202,
1779.000,0.124,
1778.000,0.1283,
1777.000,0.1332,
1776.000,0.1389,
1775.000,0.1454,
1774.000,0.1531,
1773.000,0.1624,
1772.000,0.1736,
1771.000,0.1861,
1770.000,0.1988,
1769.000,0.2107,
1768.000,0.221,
1767.000,0.2286,
1766.000,0.2324,
1765.000,0.2329,
1764.000,0.2312,
1763.000,0.2285,
1762.000,0.2261,
1761.000,0.2247,
1760.000,0.2247,
1759.000,0.2261,
1758.000,0.2288,
1757.000,0.233,
1756.000,0.2391,
1755.000,0.2469,
1754.000,0.2561,
1753.000,0.2668,
1752.000,0.2787,
1751.000,0.2907,
1750.000,0.301,
1749.000,0.3084,
1748.000,0.3131,
1747.000,0.3162,
1746.000,0.3194,
1745.000,0.3242,
1744.000,0.3313,
1743.000,0.3409,
1742.000,0.3528,
1741.000,0.3669,
1740.000,0.3835,
1739.000,0.403,
1738.000,0.4246,
1737.000,0.4481,
1736.000,0.4752,
1735.000,0.5099,
1734.000,0.5569,
1733.000,0.6166,
1732.000,0.6855,
1731.000,0.7632,
1730.000,0.8552,
1729.000,0.9683,
1728.000,1.1061,
1727.000,1.2695,
1726.000,1.4595,
1725.000,1.6777,
1724.000,1.9226,
1723.000,2.189,
1722.000,2.4723,
1721.000,2.7409,
1720.000,2.9237,
1719.000,3.0226,
1718.000,3.1162,
1717.000,3.1766,
1716.000,3.1296,
1715.000,3.0997,
1714.000,3.1683,
1713.000,3.2379,
1712.000,3.1914,
1711.000,3.1509,
1710.000,3.2153,
1709.000,3.2779,
1708.000,3.1913,
1707.000,3.1116,
1706.000,3.1282,
1705.000,3.0603,
1704.000,2.8162,
1703.000,2.5405,
1702.000,2.2404,
1701.000,1.8983,
1700.000,1.5849,
1699.000,1.3456,
1698.000,1.1649,
1697.000,1.0103,
1696.000,0.8674,
1695.000,0.7442,
1694.000,0.6493,
1693.000,0.5789,
1692.000,0.5233,
1691.000,0.4768,
1690.000,0.4376,
1689.000,0.4055,
1688.000,0.3802,
1687.000,0.361,
1686.000,0.3464,
1685.000,0.3342,
1684.000,0.3241,
1683.000,0.3176,
1682.000,0.3152,
1681.000,0.3154,
1680.000,0.3169,
1679.000,0.3195,
1678.000,0.3223,
1677.000,0.3238,
1676.000,0.3224,
1675.000,0.3175,
1674.000,0.3098,
1673.000,0.3005,
1672.000,0.2905,
1671.000,0.2797,
1670.000,0.2681,
1669.000,0.2553,
1668.000,0.2418,
1667.000,0.2283,
1666.000,0.2154,
1665.000,0.203,
1664.000,0.1913,
1663.000,0.1806,
1662.000,0.1714,
1661.000,0.1642,
1660.000,0.1585,
1659.000,0.1541,
1658.000,0.1508,
1657.000,0.1485,
1656.000,0.1471,
1655.000,0.1466,
1654.000,0.1466,
1653.000,0.1465,
1652.000,0.1466,
1651.000,0.147,
1650.000,0.1473,
1649.000,0.1475,
1648.000,0.1479,
1647.000,0.1484,
1646.000,0.1489,
1645.000,0.1493,
1644.000,0.1496,
1643.000,0.1495,
1642.000,0.1496,
1641.000,0.15,
1640.000,0.1506,
1639.000,0.1516,
1638.000,0.153,
1637.000,0.1547,
1636.000,0.1563,
1635.000,0.1573,
1634.000,0.1576,
1633.000,0.1567,
1632.000,0.1542,
1631.000,0.1502,
1630.000,0.1452,
1629.000,0.1395,
1628.000,0.1334,
1627.000,0.1276,
1626.000,0.1225,
1625.000,0.1181,
1624.000,0.1142,
1623.000,0.1106,
1622.000,0.1078,
1621.000,0.1057,
1620.000,0.1041,
1619.000,0.1029,
1618.000,0.1018,
1617.000,0.1007,
1616.000,0.0994,
1615.000,0.0983,
1614.000,0.0976,
1613.000,0.097,
1612.000,0.0965,
1611.000,0.0958,
1610.000,0.0952,
1609.000,0.0947,
1608.000,0.0942,
1607.000,0.0937,
1606.000,0.0932,
1605.000,0.0929,
1604.000,0.0926,
1603.000,0.0923,
1602.000,0.0921,
1601.000,0.092,
1600.000,0.0919,
1599.000,0.0919,
1598.000,0.0919,
1597.000,0.0921,
1596.000,0.0923,
1595.000,0.0926,
1594.000,0.093,
1593.000,0.0936,
1592.000,0.0943,
1591.000,0.095,
1590.000,0.0956,
1589.000,0.0958,
1588.000,0.0955,
1587.000,0.0946,
1586.000,0.0933,
1585.000,0.0916,
1584.000,0.09,
1583.000,0.0884,
1582.000,0.0871,
1581.000,0.0859,
1580.000,0.0851,
1579.000,0.0845,
1578.000,0.0842,
1577.000,0.0838,
1576.000,0.0833,
1575.000,0.0826,
1574.000,0.0822,
1573.000,0.0821,
1572.000,0.0821,
1571.000,0.082,
1570.000,0.0819,
1569.000,0.0819,
1568.000,0.0821,
1567.000,0.0823,
1566.000,0.0823,
1565.000,0.0824,
1564.000,0.0826,
1563.000,0.0829,
1562.000,0.0834,
1561.000,0.0841,
1560.000,0.0845,
1559.000,0.0845,
1558.000,0.0846,
1557.000,0.0851,
1556.000,0.0855,
1555.000,0.0855,
1554.000,0.0855,
1553.000,0.0856,
1552.000,0.0857,
1551.000,0.086,
1550.000,0.0863,
1549.000,0.0868,
1548.000,0.0872,
1547.000,0.0875,
1546.000,0.0877,
1545.000,0.088,
1544.000,0.0886,
1543.000,0.0892,
1542.000,0.0896,
1541.000,0.0898,
1540.000,0.0897,
1539.000,0.0896,
1538.000,0.0897,
1537.000,0.0897,
1536.000,0.0896,
1535.000,0.0896,
1534.000,0.0897,
1533.000,0.09,
1532.000,0.0904,
1531.000,0.0908,
1530.000,0.0909,
1529.000,0.0908,
1528.000,0.0907,
1527.000,0.0909,
1526.000,0.0911,
1525.000,0.0913,
1524.000,0.0916,
1523.000,0.0918,
1522.000,0.0919,
1521.000,0.0922,
1520.000,0.0927,
1519.000,0.0933,
1518.000,0.0936,
1517.000,0.0941,
1516.000,0.0947,
1515.000,0.0956,
1514.000,0.0963,
1513.000,0.097,
1512.000,0.0978,
1511.000,0.0987,
1510.000,0.0998,
1509.000,0.1013,
1508.000,0.1028,
1507.000,0.1042,
1506.000,0.1054,
1505.000,0.1066,
1504.000,0.1074,
1503.000,0.1079,
1502.000,0.1086,
1501.000,0.1096,
1500.000,0.1107,
1499.000,0.1118,
1498.000,0.1127,
1497.000,0.1133,
1496.000,0.1136,
1495.000,0.1134,
1494.000,0.1128,
1493.000,0.1122,
1492.000,0.1118,
1491.000,0.1115,
1490.000,0.1116,
1489.000,0.1122,
1488.000,0.113,
1487.000,0.1138,
1486.000,0.1145,
1485.000,0.1153,
1484.000,0.1165,
1483.000,0.1179,
1482.000,0.1196,
1481.000,0.1218,
1480.000,0.1244,
1479.000,0.1274,
1478.000,0.1307,
1477.000,0.1347,
1476.000,0.1396,
1475.000,0.1452,
1474.000,0.1516,
1473.000,0.1594,
1472.000,0.1689,
1471.000,0.18,
1470.000,0.1925,
1469.000,0.2067,
1468.000,0.2235,
1467.000,0.2431,
1466.000,0.2652,
1465.000,0.2878,
1464.000,0.3076,
1463.000,0.3212,
1462.000,0.3285,
1461.000,0.3327,
1460.000,0.3376,
1459.000,0.3474,
1458.000,0.3667,
1457.000,0.401,
1456.000,0.4523,
1455.000,0.5167,
1454.000,0.59,
1453.000,0.6723,
1452.000,0.761,
1451.000,0.843,
1450.000,0.8956,
1449.000,0.8987,
1448.000,0.8484,
1447.000,0.7623,
1446.000,0.6666,
1445.000,0.5782,
1444.000,0.5034,
1443.000,0.444,
1442.000,0.4001,
1441.000,0.3706,
1440.000,0.3536,
1439.000,0.3474,
1438.000,0.3513,
1437.000,0.3658,
1436.000,0.3902,
1435.000,0.4213,
1434.000,0.4551,
1433.000,0.4894,
1432.000,0.5219,
1431.000,0.5488,
1430.000,0.5673,
1429.000,0.5772,
1428.000,0.5803,
1427.000,0.5796,
1426.000,0.5785,
1425.000,0.5797,
1424.000,0.583,
1423.000,0.5858,
1422.000,0.5848,
1421.000,0.5764,
1420.000,0.5568,
1419.000,0.5247,
1418.000,0.4849,
1417.000,0.4438,
1416.000,0.4042,
1415.000,0.367,
1414.000,0.3333,
1413.000,0.304,
1412.000,0.2789,
1411.000,0.2576,
1410.000,0.2399,
1409.000,0.2254,
1408.000,0.2133,
1407.000,0.203,
1406.000,0.1945,
1405.000,0.1874,
1404.000,0.1812,
1403.000,0.1757,
1402.000,0.1709,
1401.000,0.1666,
1400.000,0.1626,
1399.000,0.1587,
1398.000,0.1552,
1397.000,0.152,
1396.000,0.1487,
1395.000,0.1454,
1394.000,0.1423,
1393.000,0.1395,
1392.000,0.1368,
1391.000,0.1344,
1390.000,0.1324,
1389.000,0.1308,
1388.000,0.1295,
1387.000,0.1283,
1386.000,0.1273,
1385.000,0.1263,
1384.000,0.1253,
1383.000,0.1243,
1382.000,0.1237,
1381.000,0.1235,
1380.000,0.1234,
1379.000,0.1235,
1378.000,0.1238,
1377.000,0.1242,
1376.000,0.1245,
1375.000,0.125,
1374.000,0.1256,
1373.000,0.1264,
1372.000,0.1271,
1371.000,0.1277,
1370.000,0.1284,
1369.000,0.1293,
1368.000,0.1304,
1367.000,0.1316,
1366.000,0.133,
1365.000,0.1345,
1364.000,0.1365,
1363.000,0.1388,
1362.000,0.1418,
1361.000,0.1451,
1360.000,0.149,
1359.000,0.1535,
1358.000,0.1593,
1357.000,0.167,
1356.000,0.1774,
1355.000,0.1915,
1354.000,0.2107,
1353.000,0.2366,
1352.000,0.2705,
1351.000,0.3133,
1350.000,0.3635,
1349.000,0.4159,
1348.000,0.4611,
1347.000,0.4884,
1346.000,0.4925,
1345.000,0.4779,
1344.000,0.4568,
1343.000,0.4418,
1342.000,0.4418,
1341.000,0.4596,
1340.000,0.4905,
1339.000,0.5197,
1338.000,0.5272,
1337.000,0.5024,
1336.000,0.4538,
1335.000,0.3988,
1334.000,0.3504,
1333.000,0.3134,
1332.000,0.2878,
1331.000,0.2714,
1330.000,0.262,
1329.000,0.2576,
1328.000,0.257,
1327.000,0.2599,
1326.000,0.2661,
1325.000,0.2758,
1324.000,0.2892,
1323.000,0.3065,
1322.000,0.3282,
1321.000,0.3549,
1320.000,0.3874,
1319.000,0.4269,
1318.000,0.4749,
1317.000,0.5323,
1316.000,0.5997,
1315.000,0.6765,
1314.000,0.7592,
1313.000,0.8388,
1312.000,0.8977,
1311.000,0.9149,
1310.000,0.8808,
1309.000,0.807,
1308.000,0.715,
1307.000,0.6224,
1306.000,0.5388,
1305.000,0.4678,
1304.000,0.4092,
1303.000,0.3617,
1302.000,0.3233,
1301.000,0.2921,
1300.000,0.2665,
1299.000,0.2454,
1298.000,0.228,
1297.000,0.2136,
1296.000,0.2018,
1295.000,0.192,
1294.000,0.1841,
1293.000,0.1775,
1292.000,0.1721,
1291.000,0.1677,
1290.000,0.1641,
1289.000,0.1611,
1288.000,0.1587,
1287.000,0.1568,
1286.000,0.1552,
1285.000,0.154,
1284.000,0.1531,
1283.000,0.1524,
1282.000,0.1521,
1281.000,0.152,
1280.000,0.1521,
1279.000,0.1524,
1278.000,0.153,
1277.000,0.1539,
1276.000,0.1552,
1275.000,0.1569,
1274.000,0.1593,
1273.000,0.1626,
1272.000,0.167,
1271.000,0.173,
1270.000,0.1811,
1269.000,0.1914,
1268.000,0.2036,
1267.000,0.2162,
1266.000,0.2271,
1265.000,0.2337,
1264.000,0.2345,
1263.000,0.2299,
1262.000,0.2219,
1261.000,0.2129,
1260.000,0.2048,
1259.000,0.1984,
1258.000,0.1941,
1257.000,0.1916,
1256.000,0.1907,
1255.000,0.191,
1254.000,0.1924,
1253.000,0.1947,
1252.000,0.1976,
1251.000,0.2009,
1250.000,0.2046,
1249.000,0.2085,
1248.000,0.2125,
1247.000,0.2167,
1246.000,0.2212,
1245.000,0.2261,
1244.000,0.2316,
1243.000,0.2379,
1242.000,0.2452,
1241.000,0.2536,
1240.000,0.2633,
1239.000,0.274,
1238.000,0.2858,
1237.000,0.2985,
1236.000,0.3122,
1235.000,0.3271,
1234.000,0.3439,
1233.000,0.3635,
1232.000,0.387,
1231.000,0.4161,
1230.000,0.4526,
1229.000,0.4989,
1228.000,0.5575,
1227.000,0.6304,
1226.000,0.7188,
1225.000,0.8211,
1224.000,0.93,
1223.000,1.0278,
1222.000,1.087,
1221.000,1.0841,
1220.000,1.0212,
1219.000,0.9227,
1218.000,0.8138,
1217.000,0.7106,
1216.000,0.6197,
1215.000,0.5429,
1214.000,0.4797,
1213.000,0.4287,
1212.000,0.388,
1211.000,0.3557,
1210.000,0.3302,
1209.000,0.3101,
1208.000,0.2939,
1207.000,0.2805,
1206.000,0.2689,
1205.000,0.2586,
1204.000,0.2494,
1203.000,0.2413,
1202.000,0.2342,
1201.000,0.2282,
1200.000,0.2231,
1199.000,0.2189,
1198.000,0.2154,
1197.000,0.2125,
1196.000,0.2101,
1195.000,0.2081,
1194.000,0.2065,
1193.000,0.2052,
1192.000,0.2042,
1191.000,0.2034,
1190.000,0.2029,
1189.000,0.2026,
1188.000,0.2024,
1187.000,0.2024,
1186.000,0.2026,
1185.000,0.2029,
1184.000,0.2034,
1183.000,0.2039,
1182.000,0.2045,
1181.000,0.2052,
1180.000,0.2059,
1179.000,0.2067,
1178.000,0.2076,
1177.000,0.2085,
1176.000,0.2095,
1175.000,0.2105,
1174.000,0.2117,
1173.000,0.213,
1172.000,0.2143,
1171.000,0.2156,
1170.000,0.2171,
1169.000,0.2186,
1168.000,0.2202,
1167.000,0.2218,
1166.000,0.2234,
1165.000,0.225,
1164.000,0.2266,
1163.000,0.2281,
1162.000,0.2296,
1161.000,0.2312,
1160.000,0.2328,
1159.000,0.2344,
1158.000,0.2361,
1157.000,0.2378,
1156.000,0.2395,
1155.000,0.2414,
1154.000,0.2433,
1153.000,0.2453,
1152.000,0.2475,
1151.000,0.2497,
1150.000,0.2521,
1149.000,0.2546,
1148.000,0.2573,
1147.000,0.2602,
1146.000,0.2633,
1145.000,0.2667,
1144.000,0.2703,
1143.000,0.2743,
1142.000,0.2785,
1141.000,0.2832,
1140.000,0.2883,
1139.000,0.2938,
1138.000,0.3,
1137.000,0.307,
1136.000,0.3148,
1135.000,0.3237,
1134.000,0.3338,
1133.000,0.3455,
1132.000,0.3591,
1131.000,0.375,
1130.000,0.3939,
1129.000,0.4167,
1128.000,0.4446,
1127.000,0.4792,
1126.000,0.5225,
1125.000,0.5771,
1124.000,0.6453,
1123.000,0.7284,
1122.000,0.8247,
1121.000,0.9266,
1120.000,1.0168,
1119.000,1.0679,
1118.000,1.0596,
1117.000,0.9979,
1116.000,0.9084,
1115.000,0.814,
1114.000,0.7272,
1113.000,0.653,
1112.000,0.5918,
1111.000,0.5424,
1110.000,0.5031,
1109.000,0.4725,
1108.000,0.4487,
1107.000,0.4303,
1106.000,0.4162,
1105.000,0.4055,
1104.000,0.3974,
1103.000,0.3913,
1102.000,0.3869,
1101.000,0.3837,
1100.000,0.3815,
1099.000,0.38,
1098.000,0.3792,
1097.000,0.3789,
1096.000,0.3792,
1095.000,0.3799,
1094.000,0.3809,
1093.000,0.3823,
1092.000,0.3839,
1091.000,0.3858,
1090.000,0.388,
1089.000,0.3904,
1088.000,0.3931,
1087.000,0.3959,
1086.000,0.399,
1085.000,0.4024,
1084.000,0.4062,
1083.000,0.4103,
1082.000,0.4147,
1081.000,0.4198,
1080.000,0.4257,
1079.000,0.4325,
1078.000,0.4405,
1077.000,0.4499,
1076.000,0.4603,
1075.000,0.471,
1074.000,0.4806,
1073.000,0.4879,
1072.000,0.4927,
1071.000,0.4956,
1070.000,0.4977,
1069.000,0.5004,
1068.000,0.5042,
1067.000,0.5091,
1066.000,0.5151,
1065.000,0.5219,
1064.000,0.5295,
1063.000,0.5377,
1062.000,0.5465,
1061.000,0.5564,
1060.000,0.5677,
1059.000,0.5808,
1058.000,0.5961,
1057.000,0.6139,
1056.000,0.634,
1055.000,0.6551,
1054.000,0.6753,
1053.000,0.6918,
1052.000,0.7015,
1051.000,0.7019,
1050.000,0.6932,
1049.000,0.6779,
1048.000,0.6597,
1047.000,0.6417,
1046.000,0.6262,
1045.000,0.614,
1044.000,0.6053,
1043.000,0.5996,
1042.000,0.5963,
1041.000,0.5951,
1040.000,0.5954,
1039.000,0.5967,
1038.000,0.5989,
1037.000,0.6017,
1036.000,0.6051,
1035.000,0.609,
1034.000,0.6132,
1033.000,0.6179,
1032.000,0.6231,
1031.000,0.6287,
1030.000,0.6347,
1029.000,0.6415,
1028.000,0.6491,
1027.000,0.6576,
1026.000,0.6676,
1025.000,0.6799,
1024.000,0.6957,
1023.000,0.7163,
1022.000,0.7436,
1021.000,0.7785,
1020.000,0.8188,
1019.000,0.857,
1018.000,0.8821,
1017.000,0.8867,
1016.000,0.8725,
1015.000,0.8487,
1014.000,0.8249,
1013.000,0.8064,
1012.000,0.794,
1011.000,0.7867,
1010.000,0.7831,
1009.000,0.7825,
1008.000,0.784,
1007.000,0.7869,
1006.000,0.7909,
1005.000,0.7958,
1004.000,0.8016,
1003.000,0.8079,
1002.000,0.8147,
1001.000,0.8222,
1000.000,0.8305,
