Created as New Dataset,Sample 159 By Administrator Date Thursday, November 25 2021
cm-1,A
4500.00,0.0670
4499.00,0.0670
4498.00,0.0670
4497.00,0.0670
4496.00,0.0670
4495.00,0.0670
4494.00,0.0670
4493.00,0.0670
4492.00,0.0671
4491.00,0.0671
4490.00,0.0671
4489.00,0.0671
4488.00,0.0672
4487.00,0.0672
4486.00,0.0673
4485.00,0.0673
4484.00,0.0673
4483.00,0.0673
4482.00,0.0673
4481.00,0.0673
4480.00,0.0673
4479.00,0.0673
4478.00,0.0674
4477.00,0.0674
4476.00,0.0674
4475.00,0.0675
4474.00,0.0675
4473.00,0.0676
4472.00,0.0676
4471.00,0.0676
4470.00,0.0677
4469.00,0.0677
4468.00,0.0677
4467.00,0.0678
4466.00,0.0678
4465.00,0.0678
4464.00,0.0678
4463.00,0.0679
4462.00,0.0679
4461.00,0.0680
4460.00,0.0680
4459.00,0.0681
4458.00,0.0681
4457.00,0.0681
4456.00,0.0682
4455.00,0.0682
4454.00,0.0683
4453.00,0.0683
4452.00,0.0684
4451.00,0.0685
4450.00,0.0685
4449.00,0.0686
4448.00,0.0687
4447.00,0.0687
4446.00,0.0688
4445.00,0.0689
4444.00,0.0690
4443.00,0.0691
4442.00,0.0692
4441.00,0.0692
4440.00,0.0693
4439.00,0.0694
4438.00,0.0695
4437.00,0.0696
4436.00,0.0697
4435.00,0.0698
4434.00,0.0699
4433.00,0.0701
4432.00,0.0702
4431.00,0.0704
4430.00,0.0705
4429.00,0.0707
4428.00,0.0709
4427.00,0.0710
4426.00,0.0712
4425.00,0.0714
4424.00,0.0715
4423.00,0.0717
4422.00,0.0719
4421.00,0.0721
4420.00,0.0723
4419.00,0.0724
4418.00,0.0727
4417.00,0.0729
4416.00,0.0731
4415.00,0.0733
4414.00,0.0736
4413.00,0.0738
4412.00,0.0741
4411.00,0.0743
4410.00,0.0746
4409.00,0.0749
4408.00,0.0752
4407.00,0.0754
4406.00,0.0758
4405.00,0.0761
4404.00,0.0764
4403.00,0.0767
4402.00,0.0771
4401.00,0.0774
4400.00,0.0777
4399.00,0.0781
4398.00,0.0785
4397.00,0.0789
4396.00,0.0793
4395.00,0.0797
4394.00,0.0801
4393.00,0.0805
4392.00,0.0810
4391.00,0.0814
4390.00,0.0819
4389.00,0.0823
4388.00,0.0828
4387.00,0.0833
4386.00,0.0837
4385.00,0.0842
4384.00,0.0846
4383.00,0.0851
4382.00,0.0856
4381.00,0.0860
4380.00,0.0865
4379.00,0.0870
4378.00,0.0875
4377.00,0.0879
4376.00,0.0883
4375.00,0.0887
4374.00,0.0891
4373.00,0.0894
4372.00,0.0897
4371.00,0.0900
4370.00,0.0903
4369.00,0.0905
4368.00,0.0906
4367.00,0.0907
4366.00,0.0907
4365.00,0.0907
4364.00,0.0906
4363.00,0.0905
4362.00,0.0904
4361.00,0.0902
4360.00,0.0899
4359.00,0.0897
4358.00,0.0894
4357.00,0.0891
4356.00,0.0888
4355.00,0.0886
4354.00,0.0883
4353.00,0.0880
4352.00,0.0878
4351.00,0.0876
4350.00,0.0874
4349.00,0.0872
4348.00,0.0870
4347.00,0.0868
4346.00,0.0865
4345.00,0.0863
4344.00,0.0861
4343.00,0.0858
4342.00,0.0855
4341.00,0.0852
4340.00,0.0848
4339.00,0.0845
4338.00,0.0841
4337.00,0.0837
4336.00,0.0833
4335.00,0.0829
4334.00,0.0826
4333.00,0.0823
4332.00,0.0820
4331.00,0.0817
4330.00,0.0815
4329.00,0.0813
4328.00,0.0812
4327.00,0.0811
4326.00,0.0810
4325.00,0.0809
4324.00,0.0809
4323.00,0.0809
4322.00,0.0809
4321.00,0.0810
4320.00,0.0811
4319.00,0.0812
4318.00,0.0813
4317.00,0.0814
4316.00,0.0815
4315.00,0.0816
4314.00,0.0817
4313.00,0.0818
4312.00,0.0819
4311.00,0.0820
4310.00,0.0821
4309.00,0.0822
4308.00,0.0822
4307.00,0.0823
4306.00,0.0823
4305.00,0.0824
4304.00,0.0825
4303.00,0.0825
4302.00,0.0826
4301.00,0.0827
4300.00,0.0829
4299.00,0.0830
4298.00,0.0832
4297.00,0.0833
4296.00,0.0835
4295.00,0.0837
4294.00,0.0840
4293.00,0.0842
4292.00,0.0845
4291.00,0.0848
4290.00,0.0851
4289.00,0.0854
4288.00,0.0857
4287.00,0.0860
4286.00,0.0863
4285.00,0.0866
4284.00,0.0869
4283.00,0.0871
4282.00,0.0872
4281.00,0.0874
4280.00,0.0874
4279.00,0.0875
4278.00,0.0875
4277.00,0.0874
4276.00,0.0874
4275.00,0.0873
4274.00,0.0872
4273.00,0.0871
4272.00,0.0869
4271.00,0.0868
4270.00,0.0866
4269.00,0.0864
4268.00,0.0862
4267.00,0.0860
4266.00,0.0858
4265.00,0.0856
4264.00,0.0853
4263.00,0.0851
4262.00,0.0848
4261.00,0.0845
4260.00,0.0842
4259.00,0.0839
4258.00,0.0836
4257.00,0.0833
4256.00,0.0830
4255.00,0.0827
4254.00,0.0824
4253.00,0.0822
4252.00,0.0819
4251.00,0.0817
4250.00,0.0815
4249.00,0.0813
4248.00,0.0810
4247.00,0.0808
4246.00,0.0806
4245.00,0.0805
4244.00,0.0803
4243.00,0.0802
4242.00,0.0801
4241.00,0.0800
4240.00,0.0800
4239.00,0.0799
4238.00,0.0799
4237.00,0.0799
4236.00,0.0799
4235.00,0.0800
4234.00,0.0801
4233.00,0.0801
4232.00,0.0803
4231.00,0.0804
4230.00,0.0805
4229.00,0.0807
4228.00,0.0809
4227.00,0.0811
4226.00,0.0813
4225.00,0.0814
4224.00,0.0816
4223.00,0.0818
4222.00,0.0820
4221.00,0.0821
4220.00,0.0823
4219.00,0.0824
4218.00,0.0825
4217.00,0.0825
4216.00,0.0826
4215.00,0.0826
4214.00,0.0826
4213.00,0.0825
4212.00,0.0824
4211.00,0.0824
4210.00,0.0823
4209.00,0.0822
4208.00,0.0820
4207.00,0.0819
4206.00,0.0818
4205.00,0.0817
4204.00,0.0816
4203.00,0.0815
4202.00,0.0814
4201.00,0.0813
4200.00,0.0812
4199.00,0.0812
4198.00,0.0811
4197.00,0.0811
4196.00,0.0811
4195.00,0.0811
4194.00,0.0811
4193.00,0.0811
4192.00,0.0812
4191.00,0.0812
4190.00,0.0813
4189.00,0.0814
4188.00,0.0815
4187.00,0.0816
4186.00,0.0817
4185.00,0.0818
4184.00,0.0818
4183.00,0.0819
4182.00,0.0819
4181.00,0.0820
4180.00,0.0821
4179.00,0.0821
4178.00,0.0821
4177.00,0.0821
4176.00,0.0822
4175.00,0.0822
4174.00,0.0822
4173.00,0.0822
4172.00,0.0823
4171.00,0.0823
4170.00,0.0823
4169.00,0.0823
4168.00,0.0824
4167.00,0.0824
4166.00,0.0824
4165.00,0.0824
4164.00,0.0824
4163.00,0.0824
4162.00,0.0824
4161.00,0.0824
4160.00,0.0824
4159.00,0.0825
4158.00,0.0825
4157.00,0.0825
4156.00,0.0825
4155.00,0.0826
4154.00,0.0826
4153.00,0.0826
4152.00,0.0827
4151.00,0.0827
4150.00,0.0827
4149.00,0.0826
4148.00,0.0826
4147.00,0.0826
4146.00,0.0826
4145.00,0.0825
4144.00,0.0825
4143.00,0.0824
4142.00,0.0823
4141.00,0.0822
4140.00,0.0822
4139.00,0.0821
4138.00,0.0820
4137.00,0.0819
4136.00,0.0819
4135.00,0.0818
4134.00,0.0818
4133.00,0.0817
4132.00,0.0817
4131.00,0.0817
4130.00,0.0817
4129.00,0.0817
4128.00,0.0816
4127.00,0.0816
4126.00,0.0816
4125.00,0.0815
4124.00,0.0815
4123.00,0.0814
4122.00,0.0813
4121.00,0.0812
4120.00,0.0812
4119.00,0.0811
4118.00,0.0810
4117.00,0.0809
4116.00,0.0808
4115.00,0.0807
4114.00,0.0807
4113.00,0.0806
4112.00,0.0805
4111.00,0.0805
4110.00,0.0804
4109.00,0.0804
4108.00,0.0803
4107.00,0.0802
4106.00,0.0802
4105.00,0.0801
4104.00,0.0800
4103.00,0.0799
4102.00,0.0799
4101.00,0.0798
4100.00,0.0797
4099.00,0.0796
4098.00,0.0795
4097.00,0.0794
4096.00,0.0794
4095.00,0.0793
4094.00,0.0793
4093.00,0.0793
4092.00,0.0793
4091.00,0.0793
4090.00,0.0793
4089.00,0.0793
4088.00,0.0793
4087.00,0.0793
4086.00,0.0793
4085.00,0.0793
4084.00,0.0793
4083.00,0.0793
4082.00,0.0793
4081.00,0.0792
4080.00,0.0792
4079.00,0.0791
4078.00,0.0790
4077.00,0.0790
4076.00,0.0789
4075.00,0.0788
4074.00,0.0787
4073.00,0.0786
4072.00,0.0785
4071.00,0.0784
4070.00,0.0783
4069.00,0.0781
4068.00,0.0780
4067.00,0.0779
4066.00,0.0778
4065.00,0.0777
4064.00,0.0776
4063.00,0.0776
4062.00,0.0776
4061.00,0.0775
4060.00,0.0776
4059.00,0.0776
4058.00,0.0776
4057.00,0.0777
4056.00,0.0777
4055.00,0.0778
4054.00,0.0779
4053.00,0.0780
4052.00,0.0781
4051.00,0.0782
4050.00,0.0783
4049.00,0.0784
4048.00,0.0785
4047.00,0.0786
4046.00,0.0787
4045.00,0.0788
4044.00,0.0788
4043.00,0.0789
4042.00,0.0789
4041.00,0.0790
4040.00,0.0789
4039.00,0.0789
4038.00,0.0789
4037.00,0.0788
4036.00,0.0788
4035.00,0.0787
4034.00,0.0786
4033.00,0.0785
4032.00,0.0784
4031.00,0.0784
4030.00,0.0783
4029.00,0.0783
4028.00,0.0783
4027.00,0.0783
4026.00,0.0783
4025.00,0.0783
4024.00,0.0784
4023.00,0.0785
4022.00,0.0785
4021.00,0.0786
4020.00,0.0787
4019.00,0.0788
4018.00,0.0789
4017.00,0.0790
4016.00,0.0790
4015.00,0.0791
4014.00,0.0791
4013.00,0.0791
4012.00,0.0791
4011.00,0.0791
4010.00,0.0790
4009.00,0.0789
4008.00,0.0789
4007.00,0.0788
4006.00,0.0787
4005.00,0.0786
4004.00,0.0785
4003.00,0.0784
4002.00,0.0782
4001.00,0.0781
4000.00,0.0780
3999.00,0.0779
3998.00,0.0778
3997.00,0.0777
3996.00,0.0775
3995.00,0.0774
3994.00,0.0774
3993.00,0.0773
3992.00,0.0772
3991.00,0.0772
3990.00,0.0772
3989.00,0.0772
3988.00,0.0772
3987.00,0.0772
3986.00,0.0773
3985.00,0.0774
3984.00,0.0775
3983.00,0.0776
3982.00,0.0777
3981.00,0.0779
3980.00,0.0780
3979.00,0.0781
3978.00,0.0782
3977.00,0.0784
3976.00,0.0785
3975.00,0.0786
3974.00,0.0787
3973.00,0.0788
3972.00,0.0789
3971.00,0.0790
3970.00,0.0791
3969.00,0.0792
3968.00,0.0793
3967.00,0.0794
3966.00,0.0795
3965.00,0.0797
3964.00,0.0798
3963.00,0.0800
3962.00,0.0802
3961.00,0.0804
3960.00,0.0806
3959.00,0.0809
3958.00,0.0811
3957.00,0.0813
3956.00,0.0816
3955.00,0.0818
3954.00,0.0820
3953.00,0.0822
3952.00,0.0823
3951.00,0.0824
3950.00,0.0825
3949.00,0.0825
3948.00,0.0824
3947.00,0.0824
3946.00,0.0822
3945.00,0.0821
3944.00,0.0819
3943.00,0.0817
3942.00,0.0816
3941.00,0.0814
3940.00,0.0812
3939.00,0.0810
3938.00,0.0808
3937.00,0.0806
3936.00,0.0803
3935.00,0.0801
3934.00,0.0798
3933.00,0.0796
3932.00,0.0793
3931.00,0.0791
3930.00,0.0788
3929.00,0.0786
3928.00,0.0783
3927.00,0.0781
3926.00,0.0778
3925.00,0.0776
3924.00,0.0773
3923.00,0.0771
3922.00,0.0768
3921.00,0.0765
3920.00,0.0762
3919.00,0.0760
3918.00,0.0757
3917.00,0.0754
3916.00,0.0752
3915.00,0.0750
3914.00,0.0748
3913.00,0.0746
3912.00,0.0744
3911.00,0.0743
3910.00,0.0742
3909.00,0.0741
3908.00,0.0740
3907.00,0.0738
3906.00,0.0737
3905.00,0.0735
3904.00,0.0733
3903.00,0.0731
3902.00,0.0729
3901.00,0.0727
3900.00,0.0726
3899.00,0.0725
3898.00,0.0726
3897.00,0.0726
3896.00,0.0727
3895.00,0.0727
3894.00,0.0728
3893.00,0.0728
3892.00,0.0729
3891.00,0.0730
3890.00,0.0731
3889.00,0.0732
3888.00,0.0732
3887.00,0.0732
3886.00,0.0733
3885.00,0.0734
3884.00,0.0735
3883.00,0.0734
3882.00,0.0733
3881.00,0.0732
3880.00,0.0733
3879.00,0.0733
3878.00,0.0734
3877.00,0.0734
3876.00,0.0733
3875.00,0.0733
3874.00,0.0733
3873.00,0.0734
3872.00,0.0734
3871.00,0.0734
3870.00,0.0733
3869.00,0.0733
3868.00,0.0733
3867.00,0.0733
3866.00,0.0731
3865.00,0.0730
3864.00,0.0730
3863.00,0.0730
3862.00,0.0730
3861.00,0.0731
3860.00,0.0731
3859.00,0.0732
3858.00,0.0733
3857.00,0.0735
3856.00,0.0739
3855.00,0.0743
3854.00,0.0746
3853.00,0.0745
3852.00,0.0743
3851.00,0.0742
3850.00,0.0741
3849.00,0.0738
3848.00,0.0735
3847.00,0.0731
3846.00,0.0727
3845.00,0.0724
3844.00,0.0722
3843.00,0.0721
3842.00,0.0720
3841.00,0.0720
3840.00,0.0720
3839.00,0.0720
3838.00,0.0720
3837.00,0.0720
3836.00,0.0720
3835.00,0.0719
3834.00,0.0719
3833.00,0.0718
3832.00,0.0717
3831.00,0.0716
3830.00,0.0716
3829.00,0.0716
3828.00,0.0716
3827.00,0.0717
3826.00,0.0718
3825.00,0.0719
3824.00,0.0720
3823.00,0.0720
3822.00,0.0720
3821.00,0.0721
3820.00,0.0723
3819.00,0.0725
3818.00,0.0726
3817.00,0.0727
3816.00,0.0728
3815.00,0.0730
3814.00,0.0731
3813.00,0.0731
3812.00,0.0731
3811.00,0.0731
3810.00,0.0731
3809.00,0.0731
3808.00,0.0731
3807.00,0.0731
3806.00,0.0732
3805.00,0.0734
3804.00,0.0734
3803.00,0.0735
3802.00,0.0735
3801.00,0.0736
3800.00,0.0736
3799.00,0.0736
3798.00,0.0736
3797.00,0.0736
3796.00,0.0736
3795.00,0.0737
3794.00,0.0738
3793.00,0.0739
3792.00,0.0740
3791.00,0.0741
3790.00,0.0743
3789.00,0.0744
3788.00,0.0744
3787.00,0.0745
3786.00,0.0745
3785.00,0.0746
3784.00,0.0746
3783.00,0.0747
3782.00,0.0747
3781.00,0.0747
3780.00,0.0747
3779.00,0.0747
3778.00,0.0748
3777.00,0.0748
3776.00,0.0748
3775.00,0.0748
3774.00,0.0748
3773.00,0.0748
3772.00,0.0749
3771.00,0.0748
3770.00,0.0748
3769.00,0.0748
3768.00,0.0748
3767.00,0.0747
3766.00,0.0746
3765.00,0.0746
3764.00,0.0746
3763.00,0.0745
3762.00,0.0744
3761.00,0.0743
3760.00,0.0742
3759.00,0.0741
3758.00,0.0739
3757.00,0.0738
3756.00,0.0737
3755.00,0.0737
3754.00,0.0737
3753.00,0.0737
3752.00,0.0737
3751.00,0.0736
3750.00,0.0735
3749.00,0.0732
3748.00,0.0731
3747.00,0.0729
3746.00,0.0727
3745.00,0.0725
3744.00,0.0724
3743.00,0.0723
3742.00,0.0722
3741.00,0.0721
3740.00,0.0719
3739.00,0.0718
3738.00,0.0716
3737.00,0.0714
3736.00,0.0713
3735.00,0.0713
3734.00,0.0715
3733.00,0.0717
3732.00,0.0718
3731.00,0.0720
3730.00,0.0722
3729.00,0.0722
3728.00,0.0722
3727.00,0.0722
3726.00,0.0721
3725.00,0.0721
3724.00,0.0721
3723.00,0.0720
3722.00,0.0721
3721.00,0.0721
3720.00,0.0722
3719.00,0.0723
3718.00,0.0723
3717.00,0.0724
3716.00,0.0724
3715.00,0.0724
3714.00,0.0723
3713.00,0.0723
3712.00,0.0722
3711.00,0.0721
3710.00,0.0721
3709.00,0.0722
3708.00,0.0722
3707.00,0.0723
3706.00,0.0724
3705.00,0.0724
3704.00,0.0725
3703.00,0.0726
3702.00,0.0727
3701.00,0.0728
3700.00,0.0729
3699.00,0.0730
3698.00,0.0731
3697.00,0.0732
3696.00,0.0733
3695.00,0.0734
3694.00,0.0734
3693.00,0.0735
3692.00,0.0736
3691.00,0.0738
3690.00,0.0741
3689.00,0.0743
3688.00,0.0744
3687.00,0.0745
3686.00,0.0744
3685.00,0.0743
3684.00,0.0742
3683.00,0.0741
3682.00,0.0739
3681.00,0.0738
3680.00,0.0737
3679.00,0.0738
3678.00,0.0739
3677.00,0.0740
3676.00,0.0740
3675.00,0.0740
3674.00,0.0741
3673.00,0.0742
3672.00,0.0742
3671.00,0.0742
3670.00,0.0743
3669.00,0.0744
3668.00,0.0746
3667.00,0.0747
3666.00,0.0748
3665.00,0.0749
3664.00,0.0750
3663.00,0.0752
3662.00,0.0753
3661.00,0.0755
3660.00,0.0757
3659.00,0.0759
3658.00,0.0761
3657.00,0.0762
3656.00,0.0764
3655.00,0.0765
3654.00,0.0767
3653.00,0.0768
3652.00,0.0769
3651.00,0.0770
3650.00,0.0771
3649.00,0.0772
3648.00,0.0772
3647.00,0.0773
3646.00,0.0775
3645.00,0.0777
3644.00,0.0779
3643.00,0.0781
3642.00,0.0783
3641.00,0.0786
3640.00,0.0789
3639.00,0.0791
3638.00,0.0793
3637.00,0.0795
3636.00,0.0797
3635.00,0.0799
3634.00,0.0801
3633.00,0.0803
3632.00,0.0805
3631.00,0.0806
3630.00,0.0807
3629.00,0.0808
3628.00,0.0810
3627.00,0.0812
3626.00,0.0814
3625.00,0.0815
3624.00,0.0817
3623.00,0.0819
3622.00,0.0820
3621.00,0.0822
3620.00,0.0824
3619.00,0.0826
3618.00,0.0827
3617.00,0.0827
3616.00,0.0827
3615.00,0.0826
3614.00,0.0826
3613.00,0.0826
3612.00,0.0826
3611.00,0.0826
3610.00,0.0825
3609.00,0.0825
3608.00,0.0825
3607.00,0.0825
3606.00,0.0826
3605.00,0.0826
3604.00,0.0826
3603.00,0.0826
3602.00,0.0825
3601.00,0.0825
3600.00,0.0825
3599.00,0.0825
3598.00,0.0824
3597.00,0.0823
3596.00,0.0822
3595.00,0.0821
3594.00,0.0821
3593.00,0.0820
3592.00,0.0820
3591.00,0.0819
3590.00,0.0818
3589.00,0.0817
3588.00,0.0815
3587.00,0.0814
3586.00,0.0814
3585.00,0.0813
3584.00,0.0813
3583.00,0.0813
3582.00,0.0813
3581.00,0.0814
3580.00,0.0814
3579.00,0.0814
3578.00,0.0814
3577.00,0.0814
3576.00,0.0814
3575.00,0.0814
3574.00,0.0813
3573.00,0.0813
3572.00,0.0812
3571.00,0.0812
3570.00,0.0810
3569.00,0.0809
3568.00,0.0807
3567.00,0.0805
3566.00,0.0804
3565.00,0.0803
3564.00,0.0803
3563.00,0.0803
3562.00,0.0804
3561.00,0.0806
3560.00,0.0807
3559.00,0.0808
3558.00,0.0809
3557.00,0.0810
3556.00,0.0810
3555.00,0.0811
3554.00,0.0811
3553.00,0.0812
3552.00,0.0812
3551.00,0.0812
3550.00,0.0813
3549.00,0.0813
3548.00,0.0813
3547.00,0.0812
3546.00,0.0812
3545.00,0.0813
3544.00,0.0813
3543.00,0.0814
3542.00,0.0814
3541.00,0.0816
3540.00,0.0817
3539.00,0.0818
3538.00,0.0819
3537.00,0.0820
3536.00,0.0821
3535.00,0.0821
3534.00,0.0822
3533.00,0.0822
3532.00,0.0823
3531.00,0.0823
3530.00,0.0824
3529.00,0.0824
3528.00,0.0824
3527.00,0.0824
3526.00,0.0824
3525.00,0.0824
3524.00,0.0824
3523.00,0.0825
3522.00,0.0825
3521.00,0.0826
3520.00,0.0827
3519.00,0.0828
3518.00,0.0829
3517.00,0.0829
3516.00,0.0830
3515.00,0.0830
3514.00,0.0829
3513.00,0.0829
3512.00,0.0829
3511.00,0.0828
3510.00,0.0828
3509.00,0.0827
3508.00,0.0826
3507.00,0.0826
3506.00,0.0825
3505.00,0.0824
3504.00,0.0823
3503.00,0.0822
3502.00,0.0821
3501.00,0.0821
3500.00,0.0820
3499.00,0.0820
3498.00,0.0819
3497.00,0.0819
3496.00,0.0818
3495.00,0.0818
3494.00,0.0817
3493.00,0.0817
3492.00,0.0817
3491.00,0.0817
3490.00,0.0817
3489.00,0.0816
3488.00,0.0816
3487.00,0.0816
3486.00,0.0816
3485.00,0.0816
3484.00,0.0817
3483.00,0.0817
3482.00,0.0817
3481.00,0.0817
3480.00,0.0817
3479.00,0.0818
3478.00,0.0818
3477.00,0.0818
3476.00,0.0819
3475.00,0.0819
3474.00,0.0820
3473.00,0.0820
3472.00,0.0820
3471.00,0.0820
3470.00,0.0820
3469.00,0.0820
3468.00,0.0820
3467.00,0.0820
3466.00,0.0821
3465.00,0.0821
3464.00,0.0822
3463.00,0.0823
3462.00,0.0824
3461.00,0.0825
3460.00,0.0825
3459.00,0.0826
3458.00,0.0827
3457.00,0.0829
3456.00,0.0830
3455.00,0.0832
3454.00,0.0834
3453.00,0.0836
3452.00,0.0838
3451.00,0.0840
3450.00,0.0843
3449.00,0.0845
3448.00,0.0848
3447.00,0.0851
3446.00,0.0854
3445.00,0.0858
3444.00,0.0862
3443.00,0.0867
3442.00,0.0872
3441.00,0.0877
3440.00,0.0882
3439.00,0.0888
3438.00,0.0893
3437.00,0.0899
3436.00,0.0906
3435.00,0.0913
3434.00,0.0922
3433.00,0.0931
3432.00,0.0940
3431.00,0.0951
3430.00,0.0962
3429.00,0.0974
3428.00,0.0987
3427.00,0.1001
3426.00,0.1016
3425.00,0.1032
3424.00,0.1049
3423.00,0.1066
3422.00,0.1085
3421.00,0.1105
3420.00,0.1126
3419.00,0.1148
3418.00,0.1171
3417.00,0.1194
3416.00,0.1218
3415.00,0.1241
3414.00,0.1264
3413.00,0.1286
3412.00,0.1307
3411.00,0.1327
3410.00,0.1344
3409.00,0.1358
3408.00,0.1370
3407.00,0.1377
3406.00,0.1380
3405.00,0.1379
3404.00,0.1374
3403.00,0.1364
3402.00,0.1349
3401.00,0.1330
3400.00,0.1309
3399.00,0.1285
3398.00,0.1260
3397.00,0.1234
3396.00,0.1207
3395.00,0.1181
3394.00,0.1154
3393.00,0.1129
3392.00,0.1104
3391.00,0.1082
3390.00,0.1060
3389.00,0.1041
3388.00,0.1023
3387.00,0.1006
3386.00,0.0991
3385.00,0.0976
3384.00,0.0962
3383.00,0.0949
3382.00,0.0937
3381.00,0.0926
3380.00,0.0916
3379.00,0.0906
3378.00,0.0897
3377.00,0.0889
3376.00,0.0882
3375.00,0.0875
3374.00,0.0869
3373.00,0.0863
3372.00,0.0859
3371.00,0.0854
3370.00,0.0850
3369.00,0.0846
3368.00,0.0843
3367.00,0.0840
3366.00,0.0837
3365.00,0.0835
3364.00,0.0833
3363.00,0.0831
3362.00,0.0829
3361.00,0.0827
3360.00,0.0825
3359.00,0.0824
3358.00,0.0822
3357.00,0.0821
3356.00,0.0820
3355.00,0.0819
3354.00,0.0818
3353.00,0.0817
3352.00,0.0816
3351.00,0.0815
3350.00,0.0813
3349.00,0.0812
3348.00,0.0811
3347.00,0.0810
3346.00,0.0809
3345.00,0.0808
3344.00,0.0806
3343.00,0.0805
3342.00,0.0803
3341.00,0.0802
3340.00,0.0800
3339.00,0.0798
3338.00,0.0797
3337.00,0.0795
3336.00,0.0794
3335.00,0.0793
3334.00,0.0792
3333.00,0.0791
3332.00,0.0789
3331.00,0.0788
3330.00,0.0787
3329.00,0.0786
3328.00,0.0784
3327.00,0.0783
3326.00,0.0781
3325.00,0.0780
3324.00,0.0779
3323.00,0.0777
3322.00,0.0776
3321.00,0.0774
3320.00,0.0773
3319.00,0.0772
3318.00,0.0771
3317.00,0.0770
3316.00,0.0769
3315.00,0.0769
3314.00,0.0768
3313.00,0.0767
3312.00,0.0766
3311.00,0.0766
3310.00,0.0765
3309.00,0.0765
3308.00,0.0764
3307.00,0.0764
3306.00,0.0764
3305.00,0.0763
3304.00,0.0763
3303.00,0.0762
3302.00,0.0762
3301.00,0.0761
3300.00,0.0761
3299.00,0.0761
3298.00,0.0760
3297.00,0.0760
3296.00,0.0760
3295.00,0.0759
3294.00,0.0759
3293.00,0.0759
3292.00,0.0758
3291.00,0.0758
3290.00,0.0758
3289.00,0.0758
3288.00,0.0757
3287.00,0.0758
3286.00,0.0758
3285.00,0.0758
3284.00,0.0758
3283.00,0.0758
3282.00,0.0759
3281.00,0.0759
3280.00,0.0759
3279.00,0.0759
3278.00,0.0760
3277.00,0.0761
3276.00,0.0761
3275.00,0.0762
3274.00,0.0763
3273.00,0.0763
3272.00,0.0764
3271.00,0.0764
3270.00,0.0765
3269.00,0.0765
3268.00,0.0766
3267.00,0.0767
3266.00,0.0767
3265.00,0.0768
3264.00,0.0768
3263.00,0.0769
3262.00,0.0770
3261.00,0.0770
3260.00,0.0771
3259.00,0.0772
3258.00,0.0772
3257.00,0.0773
3256.00,0.0774
3255.00,0.0774
3254.00,0.0775
3253.00,0.0776
3252.00,0.0776
3251.00,0.0777
3250.00,0.0778
3249.00,0.0778
3248.00,0.0779
3247.00,0.0780
3246.00,0.0780
3245.00,0.0780
3244.00,0.0780
3243.00,0.0780
3242.00,0.0781
3241.00,0.0781
3240.00,0.0781
3239.00,0.0781
3238.00,0.0781
3237.00,0.0781
3236.00,0.0781
3235.00,0.0781
3234.00,0.0781
3233.00,0.0780
3232.00,0.0780
3231.00,0.0779
3230.00,0.0778
3229.00,0.0778
3228.00,0.0777
3227.00,0.0777
3226.00,0.0776
3225.00,0.0776
3224.00,0.0775
3223.00,0.0775
3222.00,0.0775
3221.00,0.0774
3220.00,0.0774
3219.00,0.0773
3218.00,0.0773
3217.00,0.0772
3216.00,0.0772
3215.00,0.0771
3214.00,0.0770
3213.00,0.0770
3212.00,0.0769
3211.00,0.0768
3210.00,0.0767
3209.00,0.0766
3208.00,0.0766
3207.00,0.0765
3206.00,0.0764
3205.00,0.0763
3204.00,0.0763
3203.00,0.0762
3202.00,0.0761
3201.00,0.0761
3200.00,0.0760
3199.00,0.0759
3198.00,0.0759
3197.00,0.0758
3196.00,0.0758
3195.00,0.0758
3194.00,0.0757
3193.00,0.0757
3192.00,0.0757
3191.00,0.0757
3190.00,0.0757
3189.00,0.0758
3188.00,0.0758
3187.00,0.0758
3186.00,0.0759
3185.00,0.0759
3184.00,0.0760
3183.00,0.0761
3182.00,0.0762
3181.00,0.0763
3180.00,0.0764
3179.00,0.0765
3178.00,0.0766
3177.00,0.0766
3176.00,0.0767
3175.00,0.0768
3174.00,0.0769
3173.00,0.0769
3172.00,0.0770
3171.00,0.0771
3170.00,0.0771
3169.00,0.0772
3168.00,0.0772
3167.00,0.0773
3166.00,0.0773
3165.00,0.0773
3164.00,0.0774
3163.00,0.0774
3162.00,0.0775
3161.00,0.0775
3160.00,0.0776
3159.00,0.0777
3158.00,0.0778
3157.00,0.0779
3156.00,0.0780
3155.00,0.0781
3154.00,0.0782
3153.00,0.0784
3152.00,0.0785
3151.00,0.0786
3150.00,0.0788
3149.00,0.0789
3148.00,0.0790
3147.00,0.0791
3146.00,0.0792
3145.00,0.0793
3144.00,0.0794
3143.00,0.0796
3142.00,0.0797
3141.00,0.0798
3140.00,0.0799
3139.00,0.0800
3138.00,0.0801
3137.00,0.0802
3136.00,0.0802
3135.00,0.0803
3134.00,0.0804
3133.00,0.0805
3132.00,0.0806
3131.00,0.0807
3130.00,0.0808
3129.00,0.0808
3128.00,0.0809
3127.00,0.0810
3126.00,0.0810
3125.00,0.0811
3124.00,0.0811
3123.00,0.0812
3122.00,0.0813
3121.00,0.0813
3120.00,0.0814
3119.00,0.0814
3118.00,0.0815
3117.00,0.0815
3116.00,0.0815
3115.00,0.0815
3114.00,0.0815
3113.00,0.0815
3112.00,0.0816
3111.00,0.0816
3110.00,0.0817
3109.00,0.0817
3108.00,0.0818
3107.00,0.0818
3106.00,0.0818
3105.00,0.0819
3104.00,0.0819
3103.00,0.0820
3102.00,0.0820
3101.00,0.0821
3100.00,0.0822
3099.00,0.0823
3098.00,0.0824
3097.00,0.0826
3096.00,0.0827
3095.00,0.0828
3094.00,0.0830
3093.00,0.0831
3092.00,0.0833
3091.00,0.0835
3090.00,0.0838
3089.00,0.0840
3088.00,0.0842
3087.00,0.0844
3086.00,0.0847
3085.00,0.0849
3084.00,0.0852
3083.00,0.0854
3082.00,0.0857
3081.00,0.0860
3080.00,0.0863
3079.00,0.0866
3078.00,0.0868
3077.00,0.0871
3076.00,0.0875
3075.00,0.0878
3074.00,0.0882
3073.00,0.0886
3072.00,0.0890
3071.00,0.0895
3070.00,0.0900
3069.00,0.0905
3068.00,0.0911
3067.00,0.0917
3066.00,0.0923
3065.00,0.0929
3064.00,0.0935
3063.00,0.0941
3062.00,0.0946
3061.00,0.0952
3060.00,0.0957
3059.00,0.0962
3058.00,0.0966
3057.00,0.0971
3056.00,0.0974
3055.00,0.0978
3054.00,0.0982
3053.00,0.0985
3052.00,0.0988
3051.00,0.0990
3050.00,0.0992
3049.00,0.0994
3048.00,0.0996
3047.00,0.0998
3046.00,0.1000
3045.00,0.1002
3044.00,0.1005
3043.00,0.1008
3042.00,0.1012
3041.00,0.1017
3040.00,0.1022
3039.00,0.1028
3038.00,0.1034
3037.00,0.1041
3036.00,0.1050
3035.00,0.1058
3034.00,0.1068
3033.00,0.1077
3032.00,0.1087
3031.00,0.1097
3030.00,0.1107
3029.00,0.1117
3028.00,0.1127
3027.00,0.1137
3026.00,0.1146
3025.00,0.1155
3024.00,0.1165
3023.00,0.1174
3022.00,0.1182
3021.00,0.1191
3020.00,0.1200
3019.00,0.1209
3018.00,0.1218
3017.00,0.1227
3016.00,0.1237
3015.00,0.1247
3014.00,0.1258
3013.00,0.1269
3012.00,0.1281
3011.00,0.1294
3010.00,0.1308
3009.00,0.1324
3008.00,0.1340
3007.00,0.1358
3006.00,0.1378
3005.00,0.1400
3004.00,0.1423
3003.00,0.1449
3002.00,0.1477
3001.00,0.1507
3000.00,0.1540
2999.00,0.1575
2998.00,0.1614
2997.00,0.1657
2996.00,0.1703
2995.00,0.1753
2994.00,0.1808
2993.00,0.1868
2992.00,0.1934
2991.00,0.2006
2990.00,0.2084
2989.00,0.2171
2988.00,0.2266
2987.00,0.2370
2986.00,0.2484
2985.00,0.2609
2984.00,0.2746
2983.00,0.2896
2982.00,0.3061
2981.00,0.3241
2980.00,0.3440
2979.00,0.3658
2978.00,0.3898
2977.00,0.4163
2976.00,0.4453
2975.00,0.4773
2974.00,0.5123
2973.00,0.5506
2972.00,0.5923
2971.00,0.6375
2970.00,0.6862
2969.00,0.7381
2968.00,0.7930
2967.00,0.8506
2966.00,0.9107
2965.00,0.9728
2964.00,1.0364
2963.00,1.1007
2962.00,1.1649
2961.00,1.2279
2960.00,1.2885
2959.00,1.3459
2958.00,1.3993
2957.00,1.4483
2956.00,1.4930
2955.00,1.5343
2954.00,1.5734
2953.00,1.6113
2952.00,1.6488
2951.00,1.6869
2950.00,1.7268
2949.00,1.7693
2948.00,1.8146
2947.00,1.8620
2946.00,1.9101
2945.00,1.9566
2944.00,1.9996
2943.00,2.0380
2942.00,2.0714
2941.00,2.0993
2940.00,2.1213
2939.00,2.1381
2938.00,2.1494
2937.00,2.1534
2936.00,2.1489
2935.00,2.1364
2934.00,2.1159
2933.00,2.0865
2932.00,2.0478
2931.00,2.0002
2930.00,1.9449
2929.00,1.8824
2928.00,1.8146
2927.00,1.7442
2926.00,1.6735
2925.00,1.6038
2924.00,1.5357
2923.00,1.4692
2922.00,1.4044
2921.00,1.3411
2920.00,1.2793
2919.00,1.2193
2918.00,1.1618
2917.00,1.1072
2916.00,1.0562
2915.00,1.0094
2914.00,0.9670
2913.00,0.9293
2912.00,0.8963
2911.00,0.8676
2910.00,0.8431
2909.00,0.8220
2908.00,0.8035
2907.00,0.7868
2906.00,0.7714
2905.00,0.7566
2904.00,0.7419
2903.00,0.7273
2902.00,0.7127
2901.00,0.6983
2900.00,0.6843
2899.00,0.6711
2898.00,0.6587
2897.00,0.6473
2896.00,0.6368
2895.00,0.6273
2894.00,0.6187
2893.00,0.6109
2892.00,0.6039
2891.00,0.5976
2890.00,0.5920
2889.00,0.5875
2888.00,0.5842
2887.00,0.5825
2886.00,0.5827
2885.00,0.5850
2884.00,0.5897
2883.00,0.5967
2882.00,0.6061
2881.00,0.6178
2880.00,0.6320
2879.00,0.6486
2878.00,0.6680
2877.00,0.6905
2876.00,0.7162
2875.00,0.7455
2874.00,0.7788
2873.00,0.8160
2872.00,0.8573
2871.00,0.9026
2870.00,0.9516
2869.00,1.0034
2868.00,1.0565
2867.00,1.1087
2866.00,1.1572
2865.00,1.1985
2864.00,1.2290
2863.00,1.2456
2862.00,1.2466
2861.00,1.2318
2860.00,1.2024
2859.00,1.1607
2858.00,1.1094
2857.00,1.0511
2856.00,0.9880
2855.00,0.9222
2854.00,0.8556
2853.00,0.7899
2852.00,0.7265
2851.00,0.6667
2850.00,0.6112
2849.00,0.5606
2848.00,0.5151
2847.00,0.4746
2846.00,0.4389
2845.00,0.4076
2844.00,0.3805
2843.00,0.3571
2842.00,0.3370
2841.00,0.3198
2840.00,0.3053
2839.00,0.2931
2838.00,0.2830
2837.00,0.2747
2836.00,0.2681
2835.00,0.2628
2834.00,0.2587
2833.00,0.2555
2832.00,0.2529
2831.00,0.2508
2830.00,0.2488
2829.00,0.2467
2828.00,0.2443
2827.00,0.2413
2826.00,0.2378
2825.00,0.2335
2824.00,0.2284
2823.00,0.2228
2822.00,0.2167
2821.00,0.2103
2820.00,0.2037
2819.00,0.1971
2818.00,0.1907
2817.00,0.1845
2816.00,0.1787
2815.00,0.1733
2814.00,0.1684
2813.00,0.1639
2812.00,0.1599
2811.00,0.1564
2810.00,0.1531
2809.00,0.1502
2808.00,0.1475
2807.00,0.1450
2806.00,0.1428
2805.00,0.1408
2804.00,0.1393
2803.00,0.1380
2802.00,0.1372
2801.00,0.1367
2800.00,0.1365
2799.00,0.1364
2798.00,0.1363
2797.00,0.1358
2796.00,0.1351
2795.00,0.1338
2794.00,0.1321
2793.00,0.1299
2792.00,0.1275
2791.00,0.1250
2790.00,0.1224
2789.00,0.1200
2788.00,0.1177
2787.00,0.1157
2786.00,0.1138
2785.00,0.1122
2784.00,0.1108
2783.00,0.1095
2782.00,0.1085
2781.00,0.1076
2780.00,0.1068
2779.00,0.1061
2778.00,0.1054
2777.00,0.1048
2776.00,0.1041
2775.00,0.1034
2774.00,0.1027
2773.00,0.1020
2772.00,0.1013
2771.00,0.1006
2770.00,0.1001
2769.00,0.0996
2768.00,0.0992
2767.00,0.0989
2766.00,0.0986
2765.00,0.0984
2764.00,0.0981
2763.00,0.0979
2762.00,0.0975
2761.00,0.0971
2760.00,0.0965
2759.00,0.0957
2758.00,0.0948
2757.00,0.0938
2756.00,0.0927
2755.00,0.0916
2754.00,0.0906
2753.00,0.0896
2752.00,0.0887
2751.00,0.0880
2750.00,0.0873
2749.00,0.0868
2748.00,0.0863
2747.00,0.0859
2746.00,0.0856
2745.00,0.0853
2744.00,0.0850
2743.00,0.0848
2742.00,0.0846
2741.00,0.0844
2740.00,0.0843
2739.00,0.0842
2738.00,0.0841
2737.00,0.0841
2736.00,0.0841
2735.00,0.0840
2734.00,0.0840
2733.00,0.0839
2732.00,0.0838
2731.00,0.0837
2730.00,0.0835
2729.00,0.0833
2728.00,0.0830
2727.00,0.0828
2726.00,0.0825
2725.00,0.0823
2724.00,0.0821
2723.00,0.0819
2722.00,0.0818
2721.00,0.0818
2720.00,0.0818
2719.00,0.0818
2718.00,0.0819
2717.00,0.0821
2716.00,0.0822
2715.00,0.0822
2714.00,0.0823
2713.00,0.0823
2712.00,0.0823
2711.00,0.0823
2710.00,0.0823
2709.00,0.0824
2708.00,0.0824
2707.00,0.0825
2706.00,0.0826
2705.00,0.0828
2704.00,0.0829
2703.00,0.0831
2702.00,0.0833
2701.00,0.0835
2700.00,0.0838
2699.00,0.0841
2698.00,0.0845
2697.00,0.0848
2696.00,0.0852
2695.00,0.0856
2694.00,0.0861
2693.00,0.0865
2692.00,0.0870
2691.00,0.0876
2690.00,0.0882
2689.00,0.0890
2688.00,0.0900
2687.00,0.0912
2686.00,0.0927
2685.00,0.0944
2684.00,0.0964
2683.00,0.0987
2682.00,0.1013
2681.00,0.1041
2680.00,0.1071
2679.00,0.1101
2678.00,0.1130
2677.00,0.1156
2676.00,0.1178
2675.00,0.1194
2674.00,0.1206
2673.00,0.1214
2672.00,0.1220
2671.00,0.1223
2670.00,0.1223
2669.00,0.1219
2668.00,0.1209
2667.00,0.1192
2666.00,0.1170
2665.00,0.1143
2664.00,0.1114
2663.00,0.1086
2662.00,0.1059
2661.00,0.1037
2660.00,0.1018
2659.00,0.1004
2658.00,0.0993
2657.00,0.0986
2656.00,0.0981
2655.00,0.0979
2654.00,0.0978
2653.00,0.0977
2652.00,0.0977
2651.00,0.0976
2650.00,0.0974
2649.00,0.0971
2648.00,0.0967
2647.00,0.0961
2646.00,0.0954
2645.00,0.0945
2644.00,0.0934
2643.00,0.0923
2642.00,0.0911
2641.00,0.0898
2640.00,0.0886
2639.00,0.0875
2638.00,0.0864
2637.00,0.0855
2636.00,0.0846
2635.00,0.0839
2634.00,0.0833
2633.00,0.0829
2632.00,0.0825
2631.00,0.0822
2630.00,0.0821
2629.00,0.0820
2628.00,0.0820
2627.00,0.0821
2626.00,0.0823
2625.00,0.0826
2624.00,0.0829
2623.00,0.0833
2622.00,0.0838
2621.00,0.0843
2620.00,0.0848
2619.00,0.0853
2618.00,0.0859
2617.00,0.0864
2616.00,0.0869
2615.00,0.0874
2614.00,0.0877
2613.00,0.0881
2612.00,0.0883
2611.00,0.0884
2610.00,0.0884
2609.00,0.0883
2608.00,0.0879
2607.00,0.0874
2606.00,0.0867
2605.00,0.0859
2604.00,0.0851
2603.00,0.0843
2602.00,0.0835
2601.00,0.0828
2600.00,0.0821
2599.00,0.0815
2598.00,0.0810
2597.00,0.0806
2596.00,0.0803
2595.00,0.0800
2594.00,0.0799
2593.00,0.0798
2592.00,0.0798
2591.00,0.0798
2590.00,0.0798
2589.00,0.0799
2588.00,0.0800
2587.00,0.0802
2586.00,0.0802
2585.00,0.0803
2584.00,0.0803
2583.00,0.0804
2582.00,0.0803
2581.00,0.0803
2580.00,0.0803
2579.00,0.0804
2578.00,0.0804
2577.00,0.0805
2576.00,0.0806
2575.00,0.0807
2574.00,0.0808
2573.00,0.0809
2572.00,0.0810
2571.00,0.0811
2570.00,0.0811
2569.00,0.0811
2568.00,0.0811
2567.00,0.0810
2566.00,0.0808
2565.00,0.0806
2564.00,0.0804
2563.00,0.0801
2562.00,0.0798
2561.00,0.0794
2560.00,0.0791
2559.00,0.0787
2558.00,0.0784
2557.00,0.0781
2556.00,0.0779
2555.00,0.0777
2554.00,0.0775
2553.00,0.0774
2552.00,0.0773
2551.00,0.0773
2550.00,0.0773
2549.00,0.0773
2548.00,0.0774
2547.00,0.0776
2546.00,0.0777
2545.00,0.0779
2544.00,0.0781
2543.00,0.0783
2542.00,0.0785
2541.00,0.0786
2540.00,0.0788
2539.00,0.0789
2538.00,0.0790
2537.00,0.0792
2536.00,0.0793
2535.00,0.0794
2534.00,0.0795
2533.00,0.0796
2532.00,0.0797
2531.00,0.0797
2530.00,0.0797
2529.00,0.0797
2528.00,0.0796
2527.00,0.0795
2526.00,0.0794
2525.00,0.0793
2524.00,0.0792
2523.00,0.0790
2522.00,0.0787
2521.00,0.0784
2520.00,0.0780
2519.00,0.0776
2518.00,0.0772
2517.00,0.0767
2516.00,0.0763
2515.00,0.0759
2514.00,0.0756
2513.00,0.0752
2512.00,0.0750
2511.00,0.0747
2510.00,0.0744
2509.00,0.0742
2508.00,0.0740
2507.00,0.0739
2506.00,0.0738
2505.00,0.0736
2504.00,0.0735
2503.00,0.0735
2502.00,0.0734
2501.00,0.0733
2500.00,0.0732
2499.00,0.0732
2498.00,0.0731
2497.00,0.0731
2496.00,0.0731
2495.00,0.0731
2494.00,0.0732
2493.00,0.0732
2492.00,0.0732
2491.00,0.0733
2490.00,0.0733
2489.00,0.0734
2488.00,0.0735
2487.00,0.0735
2486.00,0.0736
2485.00,0.0737
2484.00,0.0738
2483.00,0.0739
2482.00,0.0740
2481.00,0.0741
2480.00,0.0742
2479.00,0.0742
2478.00,0.0743
2477.00,0.0744
2476.00,0.0746
2475.00,0.0747
2474.00,0.0750
2473.00,0.0752
2472.00,0.0755
2471.00,0.0759
2470.00,0.0762
2469.00,0.0766
2468.00,0.0769
2467.00,0.0772
2466.00,0.0774
2465.00,0.0775
2464.00,0.0775
2463.00,0.0775
2462.00,0.0774
2461.00,0.0772
2460.00,0.0771
2459.00,0.0769
2458.00,0.0768
2457.00,0.0767
2456.00,0.0766
2455.00,0.0765
2454.00,0.0765
2453.00,0.0765
2452.00,0.0765
2451.00,0.0765
2450.00,0.0764
2449.00,0.0764
2448.00,0.0763
2447.00,0.0761
2446.00,0.0760
2445.00,0.0759
2444.00,0.0758
2443.00,0.0756
2442.00,0.0755
2441.00,0.0754
2440.00,0.0753
2439.00,0.0753
2438.00,0.0752
2437.00,0.0751
2436.00,0.0751
2435.00,0.0751
2434.00,0.0752
2433.00,0.0753
2432.00,0.0755
2431.00,0.0758
2430.00,0.0762
2429.00,0.0765
2428.00,0.0768
2427.00,0.0772
2426.00,0.0774
2425.00,0.0776
2424.00,0.0777
2423.00,0.0777
2422.00,0.0777
2421.00,0.0777
2420.00,0.0776
2419.00,0.0775
2418.00,0.0774
2417.00,0.0771
2416.00,0.0769
2415.00,0.0766
2414.00,0.0762
2413.00,0.0759
2412.00,0.0756
2411.00,0.0754
2410.00,0.0752
2409.00,0.0749
2408.00,0.0747
2407.00,0.0745
2406.00,0.0743
2405.00,0.0741
2404.00,0.0739
2403.00,0.0737
2402.00,0.0736
2401.00,0.0735
2400.00,0.0735
2399.00,0.0735
2398.00,0.0735
2397.00,0.0735
2396.00,0.0735
2395.00,0.0736
2394.00,0.0736
2393.00,0.0737
2392.00,0.0738
2391.00,0.0739
2390.00,0.0740
2389.00,0.0742
2388.00,0.0743
2387.00,0.0745
2386.00,0.0747
2385.00,0.0748
2384.00,0.0750
2383.00,0.0751
2382.00,0.0753
2381.00,0.0754
2380.00,0.0755
2379.00,0.0756
2378.00,0.0758
2377.00,0.0759
2376.00,0.0761
2375.00,0.0763
2374.00,0.0764
2373.00,0.0765
2372.00,0.0765
2371.00,0.0765
2370.00,0.0765
2369.00,0.0765
2368.00,0.0765
2367.00,0.0766
2366.00,0.0767
2365.00,0.0768
2364.00,0.0769
2363.00,0.0771
2362.00,0.0773
2361.00,0.0774
2360.00,0.0775
2359.00,0.0775
2358.00,0.0776
2357.00,0.0777
2356.00,0.0778
2355.00,0.0780
2354.00,0.0783
2353.00,0.0789
2352.00,0.0795
2351.00,0.0799
2350.00,0.0799
2349.00,0.0793
2348.00,0.0782
2347.00,0.0771
2346.00,0.0768
2345.00,0.0775
2344.00,0.0784
2343.00,0.0789
2342.00,0.0788
2341.00,0.0785
2340.00,0.0784
2339.00,0.0783
2338.00,0.0784
2337.00,0.0784
2336.00,0.0784
2335.00,0.0783
2334.00,0.0783
2333.00,0.0783
2332.00,0.0785
2331.00,0.0788
2330.00,0.0792
2329.00,0.0794
2328.00,0.0795
2327.00,0.0793
2326.00,0.0789
2325.00,0.0785
2324.00,0.0781
2323.00,0.0779
2322.00,0.0776
2321.00,0.0774
2320.00,0.0772
2319.00,0.0769
2318.00,0.0767
2317.00,0.0764
2316.00,0.0761
2315.00,0.0759
2314.00,0.0759
2313.00,0.0759
2312.00,0.0760
2311.00,0.0760
2310.00,0.0760
2309.00,0.0759
2308.00,0.0758
2307.00,0.0757
2306.00,0.0756
2305.00,0.0755
2304.00,0.0755
2303.00,0.0755
2302.00,0.0756
2301.00,0.0757
2300.00,0.0758
2299.00,0.0759
2298.00,0.0760
2297.00,0.0762
2296.00,0.0764
2295.00,0.0765
2294.00,0.0767
2293.00,0.0767
2292.00,0.0767
2291.00,0.0767
2290.00,0.0766
2289.00,0.0764
2288.00,0.0762
2287.00,0.0759
2286.00,0.0756
2285.00,0.0752
2284.00,0.0749
2283.00,0.0746
2282.00,0.0744
2281.00,0.0742
2280.00,0.0741
2279.00,0.0741
2278.00,0.0741
2277.00,0.0742
2276.00,0.0744
2275.00,0.0745
2274.00,0.0747
2273.00,0.0748
2272.00,0.0749
2271.00,0.0749
2270.00,0.0749
2269.00,0.0748
2268.00,0.0747
2267.00,0.0745
2266.00,0.0743
2265.00,0.0741
2264.00,0.0740
2263.00,0.0739
2262.00,0.0738
2261.00,0.0738
2260.00,0.0739
2259.00,0.0740
2258.00,0.0741
2257.00,0.0742
2256.00,0.0743
2255.00,0.0743
2254.00,0.0743
2253.00,0.0743
2252.00,0.0742
2251.00,0.0742
2250.00,0.0742
2249.00,0.0743
2248.00,0.0744
2247.00,0.0746
2246.00,0.0748
2245.00,0.0750
2244.00,0.0751
2243.00,0.0753
2242.00,0.0754
2241.00,0.0755
2240.00,0.0756
2239.00,0.0758
2238.00,0.0759
2237.00,0.0760
2236.00,0.0761
2235.00,0.0761
2234.00,0.0762
2233.00,0.0762
2232.00,0.0762
2231.00,0.0762
2230.00,0.0762
2229.00,0.0762
2228.00,0.0762
2227.00,0.0762
2226.00,0.0762
2225.00,0.0762
2224.00,0.0763
2223.00,0.0763
2222.00,0.0763
2221.00,0.0763
2220.00,0.0763
2219.00,0.0763
2218.00,0.0764
2217.00,0.0765
2216.00,0.0766
2215.00,0.0767
2214.00,0.0768
2213.00,0.0770
2212.00,0.0771
2211.00,0.0772
2210.00,0.0772
2209.00,0.0773
2208.00,0.0773
2207.00,0.0773
2206.00,0.0773
2205.00,0.0773
2204.00,0.0773
2203.00,0.0774
2202.00,0.0774
2201.00,0.0774
2200.00,0.0773
2199.00,0.0772
2198.00,0.0771
2197.00,0.0770
2196.00,0.0769
2195.00,0.0768
2194.00,0.0768
2193.00,0.0769
2192.00,0.0770
2191.00,0.0772
2190.00,0.0774
2189.00,0.0777
2188.00,0.0781
2187.00,0.0785
2186.00,0.0789
2185.00,0.0794
2184.00,0.0799
2183.00,0.0804
2182.00,0.0810
2181.00,0.0817
2180.00,0.0824
2179.00,0.0832
2178.00,0.0840
2177.00,0.0847
2176.00,0.0852
2175.00,0.0854
2174.00,0.0852
2173.00,0.0848
2172.00,0.0842
2171.00,0.0835
2170.00,0.0826
2169.00,0.0817
2168.00,0.0808
2167.00,0.0800
2166.00,0.0792
2165.00,0.0784
2164.00,0.0777
2163.00,0.0770
2162.00,0.0764
2161.00,0.0759
2160.00,0.0755
2159.00,0.0751
2158.00,0.0747
2157.00,0.0744
2156.00,0.0741
2155.00,0.0739
2154.00,0.0738
2153.00,0.0736
2152.00,0.0735
2151.00,0.0735
2150.00,0.0734
2149.00,0.0734
2148.00,0.0734
2147.00,0.0734
2146.00,0.0735
2145.00,0.0735
2144.00,0.0736
2143.00,0.0738
2142.00,0.0739
2141.00,0.0742
2140.00,0.0745
2139.00,0.0749
2138.00,0.0752
2137.00,0.0756
2136.00,0.0760
2135.00,0.0764
2134.00,0.0767
2133.00,0.0769
2132.00,0.0770
2131.00,0.0770
2130.00,0.0770
2129.00,0.0768
2128.00,0.0765
2127.00,0.0762
2126.00,0.0759
2125.00,0.0755
2124.00,0.0753
2123.00,0.0750
2122.00,0.0748
2121.00,0.0747
2120.00,0.0746
2119.00,0.0746
2118.00,0.0746
2117.00,0.0745
2116.00,0.0745
2115.00,0.0745
2114.00,0.0745
2113.00,0.0745
2112.00,0.0745
2111.00,0.0745
2110.00,0.0746
2109.00,0.0746
2108.00,0.0748
2107.00,0.0749
2106.00,0.0751
2105.00,0.0754
2104.00,0.0756
2103.00,0.0759
2102.00,0.0763
2101.00,0.0766
2100.00,0.0770
2099.00,0.0773
2098.00,0.0777
2097.00,0.0780
2096.00,0.0783
2095.00,0.0785
2094.00,0.0786
2093.00,0.0786
2092.00,0.0786
2091.00,0.0785
2090.00,0.0783
2089.00,0.0781
2088.00,0.0779
2087.00,0.0775
2086.00,0.0771
2085.00,0.0766
2084.00,0.0762
2083.00,0.0758
2082.00,0.0754
2081.00,0.0751
2080.00,0.0749
2079.00,0.0748
2078.00,0.0748
2077.00,0.0748
2076.00,0.0750
2075.00,0.0753
2074.00,0.0757
2073.00,0.0763
2072.00,0.0769
2071.00,0.0778
2070.00,0.0787
2069.00,0.0797
2068.00,0.0807
2067.00,0.0818
2066.00,0.0829
2065.00,0.0839
2064.00,0.0847
2063.00,0.0853
2062.00,0.0855
2061.00,0.0853
2060.00,0.0848
2059.00,0.0841
2058.00,0.0831
2057.00,0.0820
2056.00,0.0807
2055.00,0.0795
2054.00,0.0783
2053.00,0.0771
2052.00,0.0760
2051.00,0.0751
2050.00,0.0743
2049.00,0.0736
2048.00,0.0729
2047.00,0.0724
2046.00,0.0720
2045.00,0.0716
2044.00,0.0713
2043.00,0.0711
2042.00,0.0709
2041.00,0.0708
2040.00,0.0708
2039.00,0.0708
2038.00,0.0708
2037.00,0.0709
2036.00,0.0709
2035.00,0.0710
2034.00,0.0711
2033.00,0.0712
2032.00,0.0712
2031.00,0.0712
2030.00,0.0713
2029.00,0.0713
2028.00,0.0714
2027.00,0.0716
2026.00,0.0717
2025.00,0.0719
2024.00,0.0721
2023.00,0.0724
2022.00,0.0726
2021.00,0.0728
2020.00,0.0729
2019.00,0.0731
2018.00,0.0732
2017.00,0.0733
2016.00,0.0734
2015.00,0.0735
2014.00,0.0736
2013.00,0.0736
2012.00,0.0736
2011.00,0.0736
2010.00,0.0737
2009.00,0.0737
2008.00,0.0736
2007.00,0.0735
2006.00,0.0733
2005.00,0.0731
2004.00,0.0729
2003.00,0.0727
2002.00,0.0725
2001.00,0.0723
2000.00,0.0722
1999.00,0.0721
1998.00,0.0721
1997.00,0.0720
1996.00,0.0720
1995.00,0.0720
1994.00,0.0720
1993.00,0.0721
1992.00,0.0723
1991.00,0.0726
1990.00,0.0729
1989.00,0.0732
1988.00,0.0736
1987.00,0.0741
1986.00,0.0747
1985.00,0.0753
1984.00,0.0761
1983.00,0.0769
1982.00,0.0777
1981.00,0.0786
1980.00,0.0794
1979.00,0.0802
1978.00,0.0809
1977.00,0.0815
1976.00,0.0819
1975.00,0.0822
1974.00,0.0823
1973.00,0.0822
1972.00,0.0819
1971.00,0.0816
1970.00,0.0811
1969.00,0.0807
1968.00,0.0803
1967.00,0.0799
1966.00,0.0796
1965.00,0.0793
1964.00,0.0790
1963.00,0.0787
1962.00,0.0785
1961.00,0.0783
1960.00,0.0782
1959.00,0.0781
1958.00,0.0780
1957.00,0.0780
1956.00,0.0781
1955.00,0.0782
1954.00,0.0784
1953.00,0.0786
1952.00,0.0789
1951.00,0.0792
1950.00,0.0794
1949.00,0.0797
1948.00,0.0799
1947.00,0.0801
1946.00,0.0802
1945.00,0.0803
1944.00,0.0802
1943.00,0.0800
1942.00,0.0798
1941.00,0.0794
1940.00,0.0789
1939.00,0.0782
1938.00,0.0774
1937.00,0.0766
1936.00,0.0760
1935.00,0.0754
1934.00,0.0749
1933.00,0.0745
1932.00,0.0742
1931.00,0.0739
1930.00,0.0737
1929.00,0.0734
1928.00,0.0732
1927.00,0.0731
1926.00,0.0729
1925.00,0.0728
1924.00,0.0728
1923.00,0.0728
1922.00,0.0729
1921.00,0.0731
1920.00,0.0732
1919.00,0.0733
1918.00,0.0734
1917.00,0.0736
1916.00,0.0739
1915.00,0.0741
1914.00,0.0742
1913.00,0.0742
1912.00,0.0743
1911.00,0.0744
1910.00,0.0744
1909.00,0.0744
1908.00,0.0745
1907.00,0.0744
1906.00,0.0743
1905.00,0.0742
1904.00,0.0740
1903.00,0.0739
1902.00,0.0738
1901.00,0.0737
1900.00,0.0736
1899.00,0.0736
1898.00,0.0735
1897.00,0.0734
1896.00,0.0734
1895.00,0.0735
1894.00,0.0736
1893.00,0.0737
1892.00,0.0739
1891.00,0.0741
1890.00,0.0744
1889.00,0.0748
1888.00,0.0754
1887.00,0.0761
1886.00,0.0768
1885.00,0.0775
1884.00,0.0783
1883.00,0.0791
1882.00,0.0800
1881.00,0.0809
1880.00,0.0818
1879.00,0.0828
1878.00,0.0837
1877.00,0.0847
1876.00,0.0857
1875.00,0.0867
1874.00,0.0876
1873.00,0.0884
1872.00,0.0890
1871.00,0.0895
1870.00,0.0896
1869.00,0.0895
1868.00,0.0892
1867.00,0.0885
1866.00,0.0876
1865.00,0.0864
1864.00,0.0851
1863.00,0.0838
1862.00,0.0826
1861.00,0.0816
1860.00,0.0807
1859.00,0.0800
1858.00,0.0794
1857.00,0.0789
1856.00,0.0785
1855.00,0.0781
1854.00,0.0778
1853.00,0.0775
1852.00,0.0773
1851.00,0.0772
1850.00,0.0772
1849.00,0.0773
1848.00,0.0775
1847.00,0.0779
1846.00,0.0783
1845.00,0.0788
1844.00,0.0794
1843.00,0.0801
1842.00,0.0808
1841.00,0.0815
1840.00,0.0821
1839.00,0.0827
1838.00,0.0834
1837.00,0.0842
1836.00,0.0851
1835.00,0.0861
1834.00,0.0871
1833.00,0.0881
1832.00,0.0891
1831.00,0.0901
1830.00,0.0910
1829.00,0.0920
1828.00,0.0929
1827.00,0.0938
1826.00,0.0947
1825.00,0.0956
1824.00,0.0967
1823.00,0.0980
1822.00,0.0995
1821.00,0.1010
1820.00,0.1028
1819.00,0.1050
1818.00,0.1075
1817.00,0.1105
1816.00,0.1138
1815.00,0.1176
1814.00,0.1216
1813.00,0.1261
1812.00,0.1309
1811.00,0.1359
1810.00,0.1409
1809.00,0.1453
1808.00,0.1489
1807.00,0.1512
1806.00,0.1520
1805.00,0.1514
1804.00,0.1494
1803.00,0.1463
1802.00,0.1424
1801.00,0.1380
1800.00,0.1334
1799.00,0.1287
1798.00,0.1243
1797.00,0.1203
1796.00,0.1169
1795.00,0.1141
1794.00,0.1118
1793.00,0.1099
1792.00,0.1083
1791.00,0.1074
1790.00,0.1070
1789.00,0.1069
1788.00,0.1069
1787.00,0.1071
1786.00,0.1077
1785.00,0.1087
1784.00,0.1103
1783.00,0.1123
1782.00,0.1145
1781.00,0.1170
1780.00,0.1202
1779.00,0.1240
1778.00,0.1283
1777.00,0.1332
1776.00,0.1389
1775.00,0.1454
1774.00,0.1531
1773.00,0.1624
1772.00,0.1736
1771.00,0.1861
1770.00,0.1988
1769.00,0.2107
1768.00,0.2210
1767.00,0.2286
1766.00,0.2324
1765.00,0.2329
1764.00,0.2312
1763.00,0.2285
1762.00,0.2261
1761.00,0.2247
1760.00,0.2247
1759.00,0.2261
1758.00,0.2288
1757.00,0.2330
1756.00,0.2391
1755.00,0.2469
1754.00,0.2561
1753.00,0.2668
1752.00,0.2787
1751.00,0.2907
1750.00,0.3010
1749.00,0.3084
1748.00,0.3131
1747.00,0.3162
1746.00,0.3194
1745.00,0.3242
1744.00,0.3313
1743.00,0.3409
1742.00,0.3528
1741.00,0.3669
1740.00,0.3835
1739.00,0.4030
1738.00,0.4246
1737.00,0.4481
1736.00,0.4752
1735.00,0.5099
1734.00,0.5569
1733.00,0.6166
1732.00,0.6855
1731.00,0.7632
1730.00,0.8552
1729.00,0.9683
1728.00,1.1061
1727.00,1.2695
1726.00,1.4595
1725.00,1.6777
1724.00,1.9226
1723.00,2.1890
1722.00,2.4723
1721.00,2.7409
1720.00,2.9237
1719.00,3.0226
1718.00,3.1162
1717.00,3.1766
1716.00,3.1296
1715.00,3.0997
1714.00,3.1683
1713.00,3.2379
1712.00,3.1914
1711.00,3.1509
1710.00,3.2153
1709.00,3.2779
1708.00,3.1913
1707.00,3.1116
1706.00,3.1282
1705.00,3.0603
1704.00,2.8162
1703.00,2.5405
1702.00,2.2404
1701.00,1.8983
1700.00,1.5849
1699.00,1.3456
1698.00,1.1649
1697.00,1.0103
1696.00,0.8674
1695.00,0.7442
1694.00,0.6493
1693.00,0.5789
1692.00,0.5233
1691.00,0.4768
1690.00,0.4376
1689.00,0.4055
1688.00,0.3802
1687.00,0.3610
1686.00,0.3464
1685.00,0.3342
1684.00,0.3241
1683.00,0.3176
1682.00,0.3152
1681.00,0.3154
1680.00,0.3169
1679.00,0.3195
1678.00,0.3223
1677.00,0.3238
1676.00,0.3224
1675.00,0.3175
1674.00,0.3098
1673.00,0.3005
1672.00,0.2905
1671.00,0.2797
1670.00,0.2681
1669.00,0.2553
1668.00,0.2418
1667.00,0.2283
1666.00,0.2154
1665.00,0.2030
1664.00,0.1913
1663.00,0.1806
1662.00,0.1714
1661.00,0.1642
1660.00,0.1585
1659.00,0.1541
1658.00,0.1508
1657.00,0.1485
1656.00,0.1471
1655.00,0.1466
1654.00,0.1466
1653.00,0.1465
1652.00,0.1466
1651.00,0.1470
1650.00,0.1473
1649.00,0.1475
1648.00,0.1479
1647.00,0.1484
1646.00,0.1489
1645.00,0.1493
1644.00,0.1496
1643.00,0.1495
1642.00,0.1496
1641.00,0.1500
1640.00,0.1506
1639.00,0.1516
1638.00,0.1530
1637.00,0.1547
1636.00,0.1563
1635.00,0.1573
1634.00,0.1576
1633.00,0.1567
1632.00,0.1542
1631.00,0.1502
1630.00,0.1452
1629.00,0.1395
1628.00,0.1334
1627.00,0.1276
1626.00,0.1225
1625.00,0.1181
1624.00,0.1142
1623.00,0.1106
1622.00,0.1078
1621.00,0.1057
1620.00,0.1041
1619.00,0.1029
1618.00,0.1018
1617.00,0.1007
1616.00,0.0994
1615.00,0.0983
1614.00,0.0976
1613.00,0.0970
1612.00,0.0965
1611.00,0.0958
1610.00,0.0952
1609.00,0.0947
1608.00,0.0942
1607.00,0.0937
1606.00,0.0932
1605.00,0.0929
1604.00,0.0926
1603.00,0.0923
1602.00,0.0921
1601.00,0.0920
1600.00,0.0919
1599.00,0.0919
1598.00,0.0919
1597.00,0.0921
1596.00,0.0923
1595.00,0.0926
1594.00,0.0930
1593.00,0.0936
1592.00,0.0943
1591.00,0.0950
1590.00,0.0956
1589.00,0.0958
1588.00,0.0955
1587.00,0.0946
1586.00,0.0933
1585.00,0.0916
1584.00,0.0900
1583.00,0.0884
1582.00,0.0871
1581.00,0.0859
1580.00,0.0851
1579.00,0.0845
1578.00,0.0842
1577.00,0.0838
1576.00,0.0833
1575.00,0.0826
1574.00,0.0822
1573.00,0.0821
1572.00,0.0821
1571.00,0.0820
1570.00,0.0819
1569.00,0.0819
1568.00,0.0821
1567.00,0.0823
1566.00,0.0823
1565.00,0.0824
1564.00,0.0826
1563.00,0.0829
1562.00,0.0834
1561.00,0.0841
1560.00,0.0845
1559.00,0.0845
1558.00,0.0846
1557.00,0.0851
1556.00,0.0855
1555.00,0.0855
1554.00,0.0855
1553.00,0.0856
1552.00,0.0857
1551.00,0.0860
1550.00,0.0863
1549.00,0.0868
1548.00,0.0872
1547.00,0.0875
1546.00,0.0877
1545.00,0.0880
1544.00,0.0886
1543.00,0.0892
1542.00,0.0896
1541.00,0.0898
1540.00,0.0897
1539.00,0.0896
1538.00,0.0897
1537.00,0.0897
1536.00,0.0896
1535.00,0.0896
1534.00,0.0897
1533.00,0.0900
1532.00,0.0904
1531.00,0.0908
1530.00,0.0909
1529.00,0.0908
1528.00,0.0907
1527.00,0.0909
1526.00,0.0911
1525.00,0.0913
1524.00,0.0916
1523.00,0.0918
1522.00,0.0919
1521.00,0.0922
1520.00,0.0927
1519.00,0.0933
1518.00,0.0936
1517.00,0.0941
1516.00,0.0947
1515.00,0.0956
1514.00,0.0963
1513.00,0.0970
1512.00,0.0978
1511.00,0.0987
1510.00,0.0998
1509.00,0.1013
1508.00,0.1028
1507.00,0.1042
1506.00,0.1054
1505.00,0.1066
1504.00,0.1074
1503.00,0.1079
1502.00,0.1086
1501.00,0.1096
1500.00,0.1107
1499.00,0.1118
1498.00,0.1127
1497.00,0.1133
1496.00,0.1136
1495.00,0.1134
1494.00,0.1128
1493.00,0.1122
1492.00,0.1118
1491.00,0.1115
1490.00,0.1116
1489.00,0.1122
1488.00,0.1130
1487.00,0.1138
1486.00,0.1145
1485.00,0.1153
1484.00,0.1165
1483.00,0.1179
1482.00,0.1196
1481.00,0.1218
1480.00,0.1244
1479.00,0.1274
1478.00,0.1307
1477.00,0.1347
1476.00,0.1396
1475.00,0.1452
1474.00,0.1516
1473.00,0.1594
1472.00,0.1689
1471.00,0.1800
1470.00,0.1925
1469.00,0.2067
1468.00,0.2235
1467.00,0.2431
1466.00,0.2652
1465.00,0.2878
1464.00,0.3076
1463.00,0.3212
1462.00,0.3285
1461.00,0.3327
1460.00,0.3376
1459.00,0.3474
1458.00,0.3667
1457.00,0.4010
1456.00,0.4523
1455.00,0.5167
1454.00,0.5900
1453.00,0.6723
1452.00,0.7610
1451.00,0.8430
1450.00,0.8956
1449.00,0.8987
1448.00,0.8484
1447.00,0.7623
1446.00,0.6666
1445.00,0.5782
1444.00,0.5034
1443.00,0.4440
1442.00,0.4001
1441.00,0.3706
1440.00,0.3536
1439.00,0.3474
1438.00,0.3513
1437.00,0.3658
1436.00,0.3902
1435.00,0.4213
1434.00,0.4551
1433.00,0.4894
1432.00,0.5219
1431.00,0.5488
1430.00,0.5673
1429.00,0.5772
1428.00,0.5803
1427.00,0.5796
1426.00,0.5785
1425.00,0.5797
1424.00,0.5830
1423.00,0.5858
1422.00,0.5848
1421.00,0.5764
1420.00,0.5568
1419.00,0.5247
1418.00,0.4849
1417.00,0.4438
1416.00,0.4042
1415.00,0.3670
1414.00,0.3333
1413.00,0.3040
1412.00,0.2789
1411.00,0.2576
1410.00,0.2399
1409.00,0.2254
1408.00,0.2133
1407.00,0.2030
1406.00,0.1945
1405.00,0.1874
1404.00,0.1812
1403.00,0.1757
1402.00,0.1709
1401.00,0.1666
1400.00,0.1626
1399.00,0.1587
1398.00,0.1552
1397.00,0.1520
1396.00,0.1487
1395.00,0.1454
1394.00,0.1423
1393.00,0.1395
1392.00,0.1368
1391.00,0.1344
1390.00,0.1324
1389.00,0.1308
1388.00,0.1295
1387.00,0.1283
1386.00,0.1273
1385.00,0.1263
1384.00,0.1253
1383.00,0.1243
1382.00,0.1237
1381.00,0.1235
1380.00,0.1234
1379.00,0.1235
1378.00,0.1238
1377.00,0.1242
1376.00,0.1245
1375.00,0.1250
1374.00,0.1256
1373.00,0.1264
1372.00,0.1271
1371.00,0.1277
1370.00,0.1284
1369.00,0.1293
1368.00,0.1304
1367.00,0.1316
1366.00,0.1330
1365.00,0.1345
1364.00,0.1365
1363.00,0.1388
1362.00,0.1418
1361.00,0.1451
1360.00,0.1490
1359.00,0.1535
1358.00,0.1593
1357.00,0.1670
1356.00,0.1774
1355.00,0.1915
1354.00,0.2107
1353.00,0.2366
1352.00,0.2705
1351.00,0.3133
1350.00,0.3635
1349.00,0.4159
1348.00,0.4611
1347.00,0.4884
1346.00,0.4925
1345.00,0.4779
1344.00,0.4568
1343.00,0.4418
1342.00,0.4418
1341.00,0.4596
1340.00,0.4905
1339.00,0.5197
1338.00,0.5272
1337.00,0.5024
1336.00,0.4538
1335.00,0.3988
1334.00,0.3504
1333.00,0.3134
1332.00,0.2878
1331.00,0.2714
1330.00,0.2620
1329.00,0.2576
1328.00,0.2570
1327.00,0.2599
1326.00,0.2661
1325.00,0.2758
1324.00,0.2892
1323.00,0.3065
1322.00,0.3282
1321.00,0.3549
1320.00,0.3874
1319.00,0.4269
1318.00,0.4749
1317.00,0.5323
1316.00,0.5997
1315.00,0.6765
1314.00,0.7592
1313.00,0.8388
1312.00,0.8977
1311.00,0.9149
1310.00,0.8808
1309.00,0.8070
1308.00,0.7150
1307.00,0.6224
1306.00,0.5388
1305.00,0.4678
1304.00,0.4092
1303.00,0.3617
1302.00,0.3233
1301.00,0.2921
1300.00,0.2665
1299.00,0.2454
1298.00,0.2280
1297.00,0.2136
1296.00,0.2018
1295.00,0.1920
1294.00,0.1841
1293.00,0.1775
1292.00,0.1721
1291.00,0.1677
1290.00,0.1641
1289.00,0.1611
1288.00,0.1587
1287.00,0.1568
1286.00,0.1552
1285.00,0.1540
1284.00,0.1531
1283.00,0.1524
1282.00,0.1521
1281.00,0.1520
1280.00,0.1521
1279.00,0.1524
1278.00,0.1530
1277.00,0.1539
1276.00,0.1552
1275.00,0.1569
1274.00,0.1593
1273.00,0.1626
1272.00,0.1670
1271.00,0.1730
1270.00,0.1811
1269.00,0.1914
1268.00,0.2036
1267.00,0.2162
1266.00,0.2271
1265.00,0.2337
1264.00,0.2345
1263.00,0.2299
1262.00,0.2219
1261.00,0.2129
1260.00,0.2048
1259.00,0.1984
1258.00,0.1941
1257.00,0.1916
1256.00,0.1907
1255.00,0.1910
1254.00,0.1924
1253.00,0.1947
1252.00,0.1976
1251.00,0.2009
1250.00,0.2046
1249.00,0.2085
1248.00,0.2125
1247.00,0.2167
1246.00,0.2212
1245.00,0.2261
1244.00,0.2316
1243.00,0.2379
1242.00,0.2452
1241.00,0.2536
1240.00,0.2633
1239.00,0.2740
1238.00,0.2858
1237.00,0.2985
1236.00,0.3122
1235.00,0.3271
1234.00,0.3439
1233.00,0.3635
1232.00,0.3870
1231.00,0.4161
1230.00,0.4526
1229.00,0.4989
1228.00,0.5575
1227.00,0.6304
1226.00,0.7188
1225.00,0.8211
1224.00,0.9300
1223.00,1.0278
1222.00,1.0870
1221.00,1.0841
1220.00,1.0212
1219.00,0.9227
1218.00,0.8138
1217.00,0.7106
1216.00,0.6197
1215.00,0.5429
1214.00,0.4797
1213.00,0.4287
1212.00,0.3880
1211.00,0.3557
1210.00,0.3302
1209.00,0.3101
1208.00,0.2939
1207.00,0.2805
1206.00,0.2689
1205.00,0.2586
1204.00,0.2494
1203.00,0.2413
1202.00,0.2342
1201.00,0.2282
1200.00,0.2231
1199.00,0.2189
1198.00,0.2154
1197.00,0.2125
1196.00,0.2101
1195.00,0.2081
1194.00,0.2065
1193.00,0.2052
1192.00,0.2042
1191.00,0.2034
1190.00,0.2029
1189.00,0.2026
1188.00,0.2024
1187.00,0.2024
1186.00,0.2026
1185.00,0.2029
1184.00,0.2034
1183.00,0.2039
1182.00,0.2045
1181.00,0.2052
1180.00,0.2059
1179.00,0.2067
1178.00,0.2076
1177.00,0.2085
1176.00,0.2095
1175.00,0.2105
1174.00,0.2117
1173.00,0.2130
1172.00,0.2143
1171.00,0.2156
1170.00,0.2171
1169.00,0.2186
1168.00,0.2202
1167.00,0.2218
1166.00,0.2234
1165.00,0.2250
1164.00,0.2266
1163.00,0.2281
1162.00,0.2296
1161.00,0.2312
1160.00,0.2328
1159.00,0.2344
1158.00,0.2361
1157.00,0.2378
1156.00,0.2395
1155.00,0.2414
1154.00,0.2433
1153.00,0.2453
1152.00,0.2475
1151.00,0.2497
1150.00,0.2521
1149.00,0.2546
1148.00,0.2573
1147.00,0.2602
1146.00,0.2633
1145.00,0.2667
1144.00,0.2703
1143.00,0.2743
1142.00,0.2785
1141.00,0.2832
1140.00,0.2883
1139.00,0.2938
1138.00,0.3000
1137.00,0.3070
1136.00,0.3148
1135.00,0.3237
1134.00,0.3338
1133.00,0.3455
1132.00,0.3591
1131.00,0.3750
1130.00,0.3939
1129.00,0.4167
1128.00,0.4446
1127.00,0.4792
1126.00,0.5225
1125.00,0.5771
1124.00,0.6453
1123.00,0.7284
1122.00,0.8247
1121.00,0.9266
1120.00,1.0168
1119.00,1.0679
1118.00,1.0596
1117.00,0.9979
1116.00,0.9084
1115.00,0.8140
1114.00,0.7272
1113.00,0.6530
1112.00,0.5918
1111.00,0.5424
1110.00,0.5031
1109.00,0.4725
1108.00,0.4487
1107.00,0.4303
1106.00,0.4162
1105.00,0.4055
1104.00,0.3974
1103.00,0.3913
1102.00,0.3869
1101.00,0.3837
1100.00,0.3815
1099.00,0.3800
1098.00,0.3792
1097.00,0.3789
1096.00,0.3792
1095.00,0.3799
1094.00,0.3809
1093.00,0.3823
1092.00,0.3839
1091.00,0.3858
1090.00,0.3880
1089.00,0.3904
1088.00,0.3931
1087.00,0.3959
1086.00,0.3990
1085.00,0.4024
1084.00,0.4062
1083.00,0.4103
1082.00,0.4147
1081.00,0.4198
1080.00,0.4257
1079.00,0.4325
1078.00,0.4405
1077.00,0.4499
1076.00,0.4603
1075.00,0.4710
1074.00,0.4806
1073.00,0.4879
1072.00,0.4927
1071.00,0.4956
1070.00,0.4977
1069.00,0.5004
1068.00,0.5042
1067.00,0.5091
1066.00,0.5151
1065.00,0.5219
1064.00,0.5295
1063.00,0.5377
1062.00,0.5465
1061.00,0.5564
1060.00,0.5677
1059.00,0.5808
1058.00,0.5961
1057.00,0.6139
1056.00,0.6340
1055.00,0.6551
1054.00,0.6753
1053.00,0.6918
1052.00,0.7015
1051.00,0.7019
1050.00,0.6932
1049.00,0.6779
1048.00,0.6597
1047.00,0.6417
1046.00,0.6262
1045.00,0.6140
1044.00,0.6053
1043.00,0.5996
1042.00,0.5963
1041.00,0.5951
1040.00,0.5954
1039.00,0.5967
1038.00,0.5989
1037.00,0.6017
1036.00,0.6051
1035.00,0.6090
1034.00,0.6132
1033.00,0.6179
1032.00,0.6231
1031.00,0.6287
1030.00,0.6347
1029.00,0.6415
1028.00,0.6491
1027.00,0.6576
1026.00,0.6676
1025.00,0.6799
1024.00,0.6957
1023.00,0.7163
1022.00,0.7436
1021.00,0.7785
1020.00,0.8188
1019.00,0.8570
1018.00,0.8821
1017.00,0.8867
1016.00,0.8725
1015.00,0.8487
1014.00,0.8249
1013.00,0.8064
1012.00,0.7940
1011.00,0.7867
1010.00,0.7831
1009.00,0.7825
1008.00,0.7840
1007.00,0.7869
1006.00,0.7909
1005.00,0.7958
1004.00,0.8016
1003.00,0.8079
1002.00,0.8147
1001.00,0.8222
1000.00,0.8305
