Created as New Dataset,Sample 158 By Administrator Date Thursday, November 25 2021
cm-1,A
4500.00,0.0748
4499.00,0.0748
4498.00,0.0748
4497.00,0.0749
4496.00,0.0749
4495.00,0.0749
4494.00,0.0750
4493.00,0.0750
4492.00,0.0750
4491.00,0.0751
4490.00,0.0751
4489.00,0.0751
4488.00,0.0751
4487.00,0.0752
4486.00,0.0752
4485.00,0.0753
4484.00,0.0753
4483.00,0.0753
4482.00,0.0753
4481.00,0.0754
4480.00,0.0754
4479.00,0.0754
4478.00,0.0755
4477.00,0.0755
4476.00,0.0756
4475.00,0.0756
4474.00,0.0756
4473.00,0.0757
4472.00,0.0757
4471.00,0.0758
4470.00,0.0759
4469.00,0.0759
4468.00,0.0760
4467.00,0.0761
4466.00,0.0761
4465.00,0.0762
4464.00,0.0762
4463.00,0.0762
4462.00,0.0763
4461.00,0.0763
4460.00,0.0764
4459.00,0.0765
4458.00,0.0765
4457.00,0.0766
4456.00,0.0767
4455.00,0.0768
4454.00,0.0768
4453.00,0.0769
4452.00,0.0770
4451.00,0.0771
4450.00,0.0772
4449.00,0.0773
4448.00,0.0774
4447.00,0.0775
4446.00,0.0776
4445.00,0.0777
4444.00,0.0778
4443.00,0.0780
4442.00,0.0781
4441.00,0.0782
4440.00,0.0784
4439.00,0.0785
4438.00,0.0787
4437.00,0.0788
4436.00,0.0790
4435.00,0.0791
4434.00,0.0793
4433.00,0.0795
4432.00,0.0797
4431.00,0.0799
4430.00,0.0801
4429.00,0.0803
4428.00,0.0806
4427.00,0.0808
4426.00,0.0810
4425.00,0.0813
4424.00,0.0815
4423.00,0.0818
4422.00,0.0821
4421.00,0.0824
4420.00,0.0826
4419.00,0.0829
4418.00,0.0833
4417.00,0.0836
4416.00,0.0839
4415.00,0.0842
4414.00,0.0846
4413.00,0.0850
4412.00,0.0854
4411.00,0.0857
4410.00,0.0861
4409.00,0.0865
4408.00,0.0869
4407.00,0.0874
4406.00,0.0878
4405.00,0.0883
4404.00,0.0888
4403.00,0.0893
4402.00,0.0897
4401.00,0.0903
4400.00,0.0908
4399.00,0.0913
4398.00,0.0919
4397.00,0.0924
4396.00,0.0930
4395.00,0.0937
4394.00,0.0943
4393.00,0.0949
4392.00,0.0956
4391.00,0.0962
4390.00,0.0969
4389.00,0.0975
4388.00,0.0982
4387.00,0.0989
4386.00,0.0995
4385.00,0.1002
4384.00,0.1009
4383.00,0.1016
4382.00,0.1023
4381.00,0.1030
4380.00,0.1037
4379.00,0.1044
4378.00,0.1050
4377.00,0.1057
4376.00,0.1063
4375.00,0.1069
4374.00,0.1075
4373.00,0.1080
4372.00,0.1085
4371.00,0.1089
4370.00,0.1092
4369.00,0.1095
4368.00,0.1097
4367.00,0.1099
4366.00,0.1099
4365.00,0.1099
4364.00,0.1098
4363.00,0.1096
4362.00,0.1093
4361.00,0.1090
4360.00,0.1087
4359.00,0.1083
4358.00,0.1080
4357.00,0.1076
4356.00,0.1072
4355.00,0.1067
4354.00,0.1063
4353.00,0.1060
4352.00,0.1056
4351.00,0.1053
4350.00,0.1050
4349.00,0.1047
4348.00,0.1044
4347.00,0.1041
4346.00,0.1037
4345.00,0.1034
4344.00,0.1030
4343.00,0.1026
4342.00,0.1021
4341.00,0.1017
4340.00,0.1012
4339.00,0.1006
4338.00,0.1001
4337.00,0.0995
4336.00,0.0989
4335.00,0.0984
4334.00,0.0979
4333.00,0.0974
4332.00,0.0970
4331.00,0.0966
4330.00,0.0963
4329.00,0.0960
4328.00,0.0957
4327.00,0.0955
4326.00,0.0954
4325.00,0.0953
4324.00,0.0953
4323.00,0.0953
4322.00,0.0953
4321.00,0.0954
4320.00,0.0956
4319.00,0.0957
4318.00,0.0958
4317.00,0.0960
4316.00,0.0962
4315.00,0.0963
4314.00,0.0965
4313.00,0.0966
4312.00,0.0968
4311.00,0.0969
4310.00,0.0970
4309.00,0.0972
4308.00,0.0972
4307.00,0.0973
4306.00,0.0974
4305.00,0.0975
4304.00,0.0975
4303.00,0.0977
4302.00,0.0978
4301.00,0.0980
4300.00,0.0981
4299.00,0.0984
4298.00,0.0986
4297.00,0.0988
4296.00,0.0991
4295.00,0.0994
4294.00,0.0998
4293.00,0.1002
4292.00,0.1006
4291.00,0.1010
4290.00,0.1014
4289.00,0.1019
4288.00,0.1023
4287.00,0.1028
4286.00,0.1033
4285.00,0.1037
4284.00,0.1041
4283.00,0.1044
4282.00,0.1047
4281.00,0.1049
4280.00,0.1050
4279.00,0.1050
4278.00,0.1050
4277.00,0.1050
4276.00,0.1049
4275.00,0.1047
4274.00,0.1045
4273.00,0.1044
4272.00,0.1042
4271.00,0.1039
4270.00,0.1037
4269.00,0.1034
4268.00,0.1032
4267.00,0.1028
4266.00,0.1025
4265.00,0.1022
4264.00,0.1018
4263.00,0.1014
4262.00,0.1010
4261.00,0.1006
4260.00,0.1002
4259.00,0.0997
4258.00,0.0993
4257.00,0.0988
4256.00,0.0984
4255.00,0.0980
4254.00,0.0975
4253.00,0.0971
4252.00,0.0968
4251.00,0.0964
4250.00,0.0961
4249.00,0.0958
4248.00,0.0954
4247.00,0.0951
4246.00,0.0949
4245.00,0.0946
4244.00,0.0944
4243.00,0.0942
4242.00,0.0940
4241.00,0.0939
4240.00,0.0939
4239.00,0.0938
4238.00,0.0938
4237.00,0.0938
4236.00,0.0938
4235.00,0.0939
4234.00,0.0939
4233.00,0.0941
4232.00,0.0942
4231.00,0.0944
4230.00,0.0946
4229.00,0.0949
4228.00,0.0951
4227.00,0.0954
4226.00,0.0957
4225.00,0.0960
4224.00,0.0962
4223.00,0.0965
4222.00,0.0968
4221.00,0.0970
4220.00,0.0972
4219.00,0.0973
4218.00,0.0975
4217.00,0.0976
4216.00,0.0976
4215.00,0.0977
4214.00,0.0976
4213.00,0.0976
4212.00,0.0975
4211.00,0.0974
4210.00,0.0972
4209.00,0.0971
4208.00,0.0969
4207.00,0.0967
4206.00,0.0965
4205.00,0.0963
4204.00,0.0962
4203.00,0.0960
4202.00,0.0959
4201.00,0.0958
4200.00,0.0957
4199.00,0.0956
4198.00,0.0955
4197.00,0.0955
4196.00,0.0954
4195.00,0.0954
4194.00,0.0954
4193.00,0.0955
4192.00,0.0956
4191.00,0.0957
4190.00,0.0958
4189.00,0.0959
4188.00,0.0961
4187.00,0.0962
4186.00,0.0963
4185.00,0.0965
4184.00,0.0966
4183.00,0.0967
4182.00,0.0968
4181.00,0.0968
4180.00,0.0969
4179.00,0.0969
4178.00,0.0970
4177.00,0.0970
4176.00,0.0970
4175.00,0.0971
4174.00,0.0971
4173.00,0.0971
4172.00,0.0972
4171.00,0.0972
4170.00,0.0972
4169.00,0.0973
4168.00,0.0973
4167.00,0.0973
4166.00,0.0973
4165.00,0.0973
4164.00,0.0973
4163.00,0.0973
4162.00,0.0973
4161.00,0.0974
4160.00,0.0974
4159.00,0.0974
4158.00,0.0975
4157.00,0.0975
4156.00,0.0976
4155.00,0.0976
4154.00,0.0976
4153.00,0.0977
4152.00,0.0977
4151.00,0.0977
4150.00,0.0977
4149.00,0.0977
4148.00,0.0977
4147.00,0.0976
4146.00,0.0976
4145.00,0.0975
4144.00,0.0974
4143.00,0.0973
4142.00,0.0972
4141.00,0.0971
4140.00,0.0970
4139.00,0.0969
4138.00,0.0968
4137.00,0.0967
4136.00,0.0966
4135.00,0.0965
4134.00,0.0964
4133.00,0.0963
4132.00,0.0963
4131.00,0.0962
4130.00,0.0962
4129.00,0.0962
4128.00,0.0962
4127.00,0.0962
4126.00,0.0961
4125.00,0.0961
4124.00,0.0960
4123.00,0.0959
4122.00,0.0958
4121.00,0.0956
4120.00,0.0955
4119.00,0.0954
4118.00,0.0952
4117.00,0.0951
4116.00,0.0950
4115.00,0.0949
4114.00,0.0948
4113.00,0.0946
4112.00,0.0946
4111.00,0.0945
4110.00,0.0944
4109.00,0.0943
4108.00,0.0942
4107.00,0.0941
4106.00,0.0940
4105.00,0.0939
4104.00,0.0938
4103.00,0.0937
4102.00,0.0936
4101.00,0.0935
4100.00,0.0933
4099.00,0.0932
4098.00,0.0931
4097.00,0.0930
4096.00,0.0929
4095.00,0.0928
4094.00,0.0927
4093.00,0.0927
4092.00,0.0927
4091.00,0.0926
4090.00,0.0926
4089.00,0.0926
4088.00,0.0927
4087.00,0.0927
4086.00,0.0928
4085.00,0.0928
4084.00,0.0928
4083.00,0.0928
4082.00,0.0927
4081.00,0.0926
4080.00,0.0926
4079.00,0.0925
4078.00,0.0924
4077.00,0.0923
4076.00,0.0922
4075.00,0.0920
4074.00,0.0919
4073.00,0.0917
4072.00,0.0915
4071.00,0.0913
4070.00,0.0911
4069.00,0.0910
4068.00,0.0908
4067.00,0.0906
4066.00,0.0904
4065.00,0.0903
4064.00,0.0902
4063.00,0.0902
4062.00,0.0901
4061.00,0.0901
4060.00,0.0901
4059.00,0.0902
4058.00,0.0902
4057.00,0.0903
4056.00,0.0904
4055.00,0.0905
4054.00,0.0907
4053.00,0.0908
4052.00,0.0910
4051.00,0.0912
4050.00,0.0913
4049.00,0.0914
4048.00,0.0916
4047.00,0.0917
4046.00,0.0918
4045.00,0.0919
4044.00,0.0920
4043.00,0.0921
4042.00,0.0922
4041.00,0.0922
4040.00,0.0922
4039.00,0.0922
4038.00,0.0921
4037.00,0.0920
4036.00,0.0919
4035.00,0.0918
4034.00,0.0916
4033.00,0.0915
4032.00,0.0914
4031.00,0.0913
4030.00,0.0912
4029.00,0.0911
4028.00,0.0911
4027.00,0.0911
4026.00,0.0912
4025.00,0.0912
4024.00,0.0913
4023.00,0.0914
4022.00,0.0916
4021.00,0.0917
4020.00,0.0918
4019.00,0.0920
4018.00,0.0921
4017.00,0.0922
4016.00,0.0923
4015.00,0.0924
4014.00,0.0924
4013.00,0.0924
4012.00,0.0924
4011.00,0.0924
4010.00,0.0923
4009.00,0.0922
4008.00,0.0921
4007.00,0.0920
4006.00,0.0919
4005.00,0.0917
4004.00,0.0916
4003.00,0.0914
4002.00,0.0912
4001.00,0.0910
4000.00,0.0908
3999.00,0.0906
3998.00,0.0904
3997.00,0.0903
3996.00,0.0901
3995.00,0.0899
3994.00,0.0898
3993.00,0.0897
3992.00,0.0897
3991.00,0.0896
3990.00,0.0896
3989.00,0.0896
3988.00,0.0897
3987.00,0.0897
3986.00,0.0898
3985.00,0.0899
3984.00,0.0900
3983.00,0.0902
3982.00,0.0903
3981.00,0.0905
3980.00,0.0907
3979.00,0.0909
3978.00,0.0911
3977.00,0.0913
3976.00,0.0915
3975.00,0.0917
3974.00,0.0919
3973.00,0.0920
3972.00,0.0921
3971.00,0.0923
3970.00,0.0924
3969.00,0.0925
3968.00,0.0927
3967.00,0.0928
3966.00,0.0930
3965.00,0.0933
3964.00,0.0935
3963.00,0.0937
3962.00,0.0940
3961.00,0.0943
3960.00,0.0947
3959.00,0.0951
3958.00,0.0954
3957.00,0.0958
3956.00,0.0961
3955.00,0.0964
3954.00,0.0968
3953.00,0.0970
3952.00,0.0972
3951.00,0.0974
3950.00,0.0974
3949.00,0.0974
3948.00,0.0974
3947.00,0.0974
3946.00,0.0973
3945.00,0.0972
3944.00,0.0969
3943.00,0.0965
3942.00,0.0961
3941.00,0.0958
3940.00,0.0957
3939.00,0.0954
3938.00,0.0951
3937.00,0.0947
3936.00,0.0944
3935.00,0.0941
3934.00,0.0937
3933.00,0.0933
3932.00,0.0929
3931.00,0.0925
3930.00,0.0922
3929.00,0.0919
3928.00,0.0917
3927.00,0.0913
3926.00,0.0908
3925.00,0.0903
3924.00,0.0898
3923.00,0.0895
3922.00,0.0893
3921.00,0.0890
3920.00,0.0886
3919.00,0.0881
3918.00,0.0877
3917.00,0.0872
3916.00,0.0868
3915.00,0.0866
3914.00,0.0863
3913.00,0.0861
3912.00,0.0857
3911.00,0.0854
3910.00,0.0852
3909.00,0.0850
3908.00,0.0850
3907.00,0.0849
3906.00,0.0847
3905.00,0.0845
3904.00,0.0843
3903.00,0.0841
3902.00,0.0841
3901.00,0.0841
3900.00,0.0838
3899.00,0.0835
3898.00,0.0834
3897.00,0.0835
3896.00,0.0836
3895.00,0.0836
3894.00,0.0836
3893.00,0.0835
3892.00,0.0834
3891.00,0.0833
3890.00,0.0835
3889.00,0.0841
3888.00,0.0845
3887.00,0.0845
3886.00,0.0842
3885.00,0.0839
3884.00,0.0841
3883.00,0.0844
3882.00,0.0845
3881.00,0.0843
3880.00,0.0839
3879.00,0.0839
3878.00,0.0844
3877.00,0.0848
3876.00,0.0848
3875.00,0.0844
3874.00,0.0841
3873.00,0.0842
3872.00,0.0845
3871.00,0.0846
3870.00,0.0843
3869.00,0.0840
3868.00,0.0841
3867.00,0.0844
3866.00,0.0844
3865.00,0.0839
3864.00,0.0835
3863.00,0.0834
3862.00,0.0836
3861.00,0.0838
3860.00,0.0840
3859.00,0.0842
3858.00,0.0844
3857.00,0.0849
3856.00,0.0855
3855.00,0.0859
3854.00,0.0857
3853.00,0.0849
3852.00,0.0843
3851.00,0.0846
3850.00,0.0848
3849.00,0.0842
3848.00,0.0833
3847.00,0.0827
3846.00,0.0824
3845.00,0.0824
3844.00,0.0823
3843.00,0.0823
3842.00,0.0823
3841.00,0.0825
3840.00,0.0825
3839.00,0.0824
3838.00,0.0822
3837.00,0.0819
3836.00,0.0818
3835.00,0.0818
3834.00,0.0817
3833.00,0.0815
3832.00,0.0812
3831.00,0.0811
3830.00,0.0812
3829.00,0.0815
3828.00,0.0816
3827.00,0.0815
3826.00,0.0815
3825.00,0.0818
3824.00,0.0823
3823.00,0.0826
3822.00,0.0825
3821.00,0.0822
3820.00,0.0822
3819.00,0.0828
3818.00,0.0835
3817.00,0.0835
3816.00,0.0830
3815.00,0.0826
3814.00,0.0827
3813.00,0.0831
3812.00,0.0832
3811.00,0.0831
3810.00,0.0831
3809.00,0.0833
3808.00,0.0834
3807.00,0.0833
3806.00,0.0834
3805.00,0.0838
3804.00,0.0843
3803.00,0.0844
3802.00,0.0840
3801.00,0.0835
3800.00,0.0835
3799.00,0.0840
3798.00,0.0843
3797.00,0.0841
3796.00,0.0838
3795.00,0.0838
3794.00,0.0842
3793.00,0.0846
3792.00,0.0848
3791.00,0.0849
3790.00,0.0849
3789.00,0.0851
3788.00,0.0852
3787.00,0.0854
3786.00,0.0854
3785.00,0.0855
3784.00,0.0855
3783.00,0.0857
3782.00,0.0859
3781.00,0.0860
3780.00,0.0859
3779.00,0.0857
3778.00,0.0857
3777.00,0.0859
3776.00,0.0861
3775.00,0.0861
3774.00,0.0861
3773.00,0.0861
3772.00,0.0862
3771.00,0.0861
3770.00,0.0860
3769.00,0.0859
3768.00,0.0861
3767.00,0.0862
3766.00,0.0860
3765.00,0.0858
3764.00,0.0857
3763.00,0.0858
3762.00,0.0858
3761.00,0.0856
3760.00,0.0853
3759.00,0.0849
3758.00,0.0848
3757.00,0.0848
3756.00,0.0849
3755.00,0.0850
3754.00,0.0851
3753.00,0.0850
3752.00,0.0849
3751.00,0.0845
3750.00,0.0839
3749.00,0.0836
3748.00,0.0837
3747.00,0.0838
3746.00,0.0835
3745.00,0.0827
3744.00,0.0818
3743.00,0.0816
3742.00,0.0822
3741.00,0.0826
3740.00,0.0823
3739.00,0.0819
3738.00,0.0818
3737.00,0.0819
3736.00,0.0819
3735.00,0.0819
3734.00,0.0821
3733.00,0.0822
3732.00,0.0824
3731.00,0.0825
3730.00,0.0826
3729.00,0.0827
3728.00,0.0826
3727.00,0.0823
3726.00,0.0822
3725.00,0.0822
3724.00,0.0823
3723.00,0.0823
3722.00,0.0823
3721.00,0.0822
3720.00,0.0822
3719.00,0.0823
3718.00,0.0823
3717.00,0.0824
3716.00,0.0826
3715.00,0.0828
3714.00,0.0829
3713.00,0.0829
3712.00,0.0828
3711.00,0.0826
3710.00,0.0825
3709.00,0.0826
3708.00,0.0828
3707.00,0.0828
3706.00,0.0828
3705.00,0.0828
3704.00,0.0828
3703.00,0.0828
3702.00,0.0827
3701.00,0.0828
3700.00,0.0830
3699.00,0.0833
3698.00,0.0835
3697.00,0.0836
3696.00,0.0836
3695.00,0.0837
3694.00,0.0840
3693.00,0.0843
3692.00,0.0846
3691.00,0.0848
3690.00,0.0850
3689.00,0.0850
3688.00,0.0849
3687.00,0.0849
3686.00,0.0851
3685.00,0.0850
3684.00,0.0847
3683.00,0.0844
3682.00,0.0843
3681.00,0.0844
3680.00,0.0846
3679.00,0.0849
3678.00,0.0853
3677.00,0.0856
3676.00,0.0854
3675.00,0.0850
3674.00,0.0851
3673.00,0.0858
3672.00,0.0862
3671.00,0.0859
3670.00,0.0853
3669.00,0.0850
3668.00,0.0853
3667.00,0.0859
3666.00,0.0862
3665.00,0.0863
3664.00,0.0862
3663.00,0.0864
3662.00,0.0866
3661.00,0.0870
3660.00,0.0874
3659.00,0.0879
3658.00,0.0882
3657.00,0.0883
3656.00,0.0884
3655.00,0.0886
3654.00,0.0892
3653.00,0.0897
3652.00,0.0900
3651.00,0.0900
3650.00,0.0900
3649.00,0.0900
3648.00,0.0901
3647.00,0.0904
3646.00,0.0908
3645.00,0.0912
3644.00,0.0913
3643.00,0.0914
3642.00,0.0914
3641.00,0.0917
3640.00,0.0920
3639.00,0.0924
3638.00,0.0927
3637.00,0.0931
3636.00,0.0934
3635.00,0.0937
3634.00,0.0939
3633.00,0.0943
3632.00,0.0949
3631.00,0.0955
3630.00,0.0957
3629.00,0.0955
3628.00,0.0953
3627.00,0.0957
3626.00,0.0963
3625.00,0.0966
3624.00,0.0964
3623.00,0.0963
3622.00,0.0965
3621.00,0.0968
3620.00,0.0969
3619.00,0.0970
3618.00,0.0972
3617.00,0.0975
3616.00,0.0978
3615.00,0.0979
3614.00,0.0978
3613.00,0.0977
3612.00,0.0978
3611.00,0.0980
3610.00,0.0982
3609.00,0.0981
3608.00,0.0979
3607.00,0.0977
3606.00,0.0977
3605.00,0.0977
3604.00,0.0976
3603.00,0.0974
3602.00,0.0972
3601.00,0.0970
3600.00,0.0969
3599.00,0.0969
3598.00,0.0969
3597.00,0.0968
3596.00,0.0966
3595.00,0.0964
3594.00,0.0963
3593.00,0.0963
3592.00,0.0963
3591.00,0.0964
3590.00,0.0964
3589.00,0.0962
3588.00,0.0958
3587.00,0.0956
3586.00,0.0955
3585.00,0.0956
3584.00,0.0956
3583.00,0.0955
3582.00,0.0953
3581.00,0.0951
3580.00,0.0950
3579.00,0.0950
3578.00,0.0950
3577.00,0.0950
3576.00,0.0949
3575.00,0.0949
3574.00,0.0948
3573.00,0.0948
3572.00,0.0948
3571.00,0.0948
3570.00,0.0948
3569.00,0.0947
3568.00,0.0944
3567.00,0.0941
3566.00,0.0940
3565.00,0.0940
3564.00,0.0942
3563.00,0.0942
3562.00,0.0941
3561.00,0.0940
3560.00,0.0940
3559.00,0.0940
3558.00,0.0941
3557.00,0.0942
3556.00,0.0943
3555.00,0.0944
3554.00,0.0944
3553.00,0.0943
3552.00,0.0944
3551.00,0.0944
3550.00,0.0946
3549.00,0.0947
3548.00,0.0947
3547.00,0.0947
3546.00,0.0946
3545.00,0.0947
3544.00,0.0947
3543.00,0.0949
3542.00,0.0950
3541.00,0.0951
3540.00,0.0951
3539.00,0.0952
3538.00,0.0953
3537.00,0.0953
3536.00,0.0954
3535.00,0.0954
3534.00,0.0955
3533.00,0.0957
3532.00,0.0957
3531.00,0.0958
3530.00,0.0958
3529.00,0.0958
3528.00,0.0959
3527.00,0.0959
3526.00,0.0960
3525.00,0.0961
3524.00,0.0961
3523.00,0.0961
3522.00,0.0961
3521.00,0.0962
3520.00,0.0963
3519.00,0.0964
3518.00,0.0964
3517.00,0.0964
3516.00,0.0964
3515.00,0.0964
3514.00,0.0964
3513.00,0.0963
3512.00,0.0963
3511.00,0.0962
3510.00,0.0961
3509.00,0.0959
3508.00,0.0959
3507.00,0.0958
3506.00,0.0958
3505.00,0.0956
3504.00,0.0954
3503.00,0.0952
3502.00,0.0950
3501.00,0.0950
3500.00,0.0949
3499.00,0.0948
3498.00,0.0947
3497.00,0.0945
3496.00,0.0944
3495.00,0.0943
3494.00,0.0943
3493.00,0.0942
3492.00,0.0942
3491.00,0.0941
3490.00,0.0941
3489.00,0.0940
3488.00,0.0940
3487.00,0.0940
3486.00,0.0940
3485.00,0.0940
3484.00,0.0941
3483.00,0.0941
3482.00,0.0940
3481.00,0.0940
3480.00,0.0941
3479.00,0.0941
3478.00,0.0942
3477.00,0.0942
3476.00,0.0942
3475.00,0.0943
3474.00,0.0943
3473.00,0.0943
3472.00,0.0943
3471.00,0.0943
3470.00,0.0943
3469.00,0.0942
3468.00,0.0942
3467.00,0.0942
3466.00,0.0942
3465.00,0.0943
3464.00,0.0944
3463.00,0.0945
3462.00,0.0946
3461.00,0.0947
3460.00,0.0948
3459.00,0.0949
3458.00,0.0950
3457.00,0.0952
3456.00,0.0954
3455.00,0.0956
3454.00,0.0958
3453.00,0.0960
3452.00,0.0963
3451.00,0.0967
3450.00,0.0970
3449.00,0.0974
3448.00,0.0978
3447.00,0.0983
3446.00,0.0988
3445.00,0.0994
3444.00,0.1001
3443.00,0.1007
3442.00,0.1014
3441.00,0.1022
3440.00,0.1030
3439.00,0.1038
3438.00,0.1047
3437.00,0.1057
3436.00,0.1067
3435.00,0.1078
3434.00,0.1090
3433.00,0.1103
3432.00,0.1118
3431.00,0.1133
3430.00,0.1150
3429.00,0.1168
3428.00,0.1187
3427.00,0.1208
3426.00,0.1230
3425.00,0.1253
3424.00,0.1278
3423.00,0.1304
3422.00,0.1332
3421.00,0.1361
3420.00,0.1393
3419.00,0.1425
3418.00,0.1459
3417.00,0.1494
3416.00,0.1528
3415.00,0.1563
3414.00,0.1597
3413.00,0.1630
3412.00,0.1661
3411.00,0.1689
3410.00,0.1714
3409.00,0.1735
3408.00,0.1751
3407.00,0.1762
3406.00,0.1766
3405.00,0.1764
3404.00,0.1755
3403.00,0.1740
3402.00,0.1718
3401.00,0.1690
3400.00,0.1658
3399.00,0.1623
3398.00,0.1586
3397.00,0.1547
3396.00,0.1508
3395.00,0.1468
3394.00,0.1430
3393.00,0.1392
3392.00,0.1357
3391.00,0.1323
3390.00,0.1292
3389.00,0.1264
3388.00,0.1237
3387.00,0.1213
3386.00,0.1190
3385.00,0.1168
3384.00,0.1147
3383.00,0.1129
3382.00,0.1111
3381.00,0.1094
3380.00,0.1079
3379.00,0.1065
3378.00,0.1052
3377.00,0.1040
3376.00,0.1029
3375.00,0.1019
3374.00,0.1010
3373.00,0.1002
3372.00,0.0995
3371.00,0.0989
3370.00,0.0983
3369.00,0.0977
3368.00,0.0972
3367.00,0.0968
3366.00,0.0964
3365.00,0.0960
3364.00,0.0957
3363.00,0.0954
3362.00,0.0951
3361.00,0.0949
3360.00,0.0946
3359.00,0.0944
3358.00,0.0941
3357.00,0.0939
3356.00,0.0938
3355.00,0.0936
3354.00,0.0934
3353.00,0.0933
3352.00,0.0931
3351.00,0.0929
3350.00,0.0928
3349.00,0.0926
3348.00,0.0925
3347.00,0.0923
3346.00,0.0921
3345.00,0.0919
3344.00,0.0917
3343.00,0.0915
3342.00,0.0913
3341.00,0.0911
3340.00,0.0908
3339.00,0.0906
3338.00,0.0904
3337.00,0.0902
3336.00,0.0900
3335.00,0.0898
3334.00,0.0897
3333.00,0.0895
3332.00,0.0893
3331.00,0.0891
3330.00,0.0889
3329.00,0.0887
3328.00,0.0885
3327.00,0.0883
3326.00,0.0881
3325.00,0.0879
3324.00,0.0877
3323.00,0.0875
3322.00,0.0873
3321.00,0.0871
3320.00,0.0869
3319.00,0.0868
3318.00,0.0866
3317.00,0.0865
3316.00,0.0863
3315.00,0.0862
3314.00,0.0861
3313.00,0.0860
3312.00,0.0859
3311.00,0.0858
3310.00,0.0857
3309.00,0.0857
3308.00,0.0856
3307.00,0.0855
3306.00,0.0854
3305.00,0.0854
3304.00,0.0853
3303.00,0.0853
3302.00,0.0852
3301.00,0.0852
3300.00,0.0851
3299.00,0.0851
3298.00,0.0850
3297.00,0.0850
3296.00,0.0849
3295.00,0.0849
3294.00,0.0848
3293.00,0.0848
3292.00,0.0848
3291.00,0.0847
3290.00,0.0847
3289.00,0.0847
3288.00,0.0847
3287.00,0.0847
3286.00,0.0847
3285.00,0.0848
3284.00,0.0848
3283.00,0.0848
3282.00,0.0849
3281.00,0.0849
3280.00,0.0850
3279.00,0.0851
3278.00,0.0851
3277.00,0.0852
3276.00,0.0853
3275.00,0.0854
3274.00,0.0855
3273.00,0.0856
3272.00,0.0857
3271.00,0.0858
3270.00,0.0859
3269.00,0.0860
3268.00,0.0861
3267.00,0.0862
3266.00,0.0863
3265.00,0.0864
3264.00,0.0865
3263.00,0.0866
3262.00,0.0867
3261.00,0.0868
3260.00,0.0869
3259.00,0.0871
3258.00,0.0872
3257.00,0.0873
3256.00,0.0874
3255.00,0.0875
3254.00,0.0876
3253.00,0.0877
3252.00,0.0879
3251.00,0.0880
3250.00,0.0881
3249.00,0.0882
3248.00,0.0883
3247.00,0.0884
3246.00,0.0885
3245.00,0.0885
3244.00,0.0886
3243.00,0.0886
3242.00,0.0887
3241.00,0.0887
3240.00,0.0887
3239.00,0.0888
3238.00,0.0888
3237.00,0.0888
3236.00,0.0888
3235.00,0.0888
3234.00,0.0887
3233.00,0.0887
3232.00,0.0886
3231.00,0.0886
3230.00,0.0885
3229.00,0.0884
3228.00,0.0883
3227.00,0.0882
3226.00,0.0882
3225.00,0.0881
3224.00,0.0880
3223.00,0.0880
3222.00,0.0880
3221.00,0.0879
3220.00,0.0879
3219.00,0.0878
3218.00,0.0877
3217.00,0.0877
3216.00,0.0876
3215.00,0.0875
3214.00,0.0874
3213.00,0.0873
3212.00,0.0872
3211.00,0.0871
3210.00,0.0870
3209.00,0.0868
3208.00,0.0867
3207.00,0.0866
3206.00,0.0865
3205.00,0.0864
3204.00,0.0863
3203.00,0.0862
3202.00,0.0861
3201.00,0.0860
3200.00,0.0860
3199.00,0.0859
3198.00,0.0858
3197.00,0.0858
3196.00,0.0857
3195.00,0.0857
3194.00,0.0856
3193.00,0.0856
3192.00,0.0856
3191.00,0.0856
3190.00,0.0857
3189.00,0.0857
3188.00,0.0857
3187.00,0.0858
3186.00,0.0859
3185.00,0.0860
3184.00,0.0861
3183.00,0.0862
3182.00,0.0863
3181.00,0.0865
3180.00,0.0866
3179.00,0.0867
3178.00,0.0869
3177.00,0.0870
3176.00,0.0871
3175.00,0.0872
3174.00,0.0874
3173.00,0.0875
3172.00,0.0876
3171.00,0.0877
3170.00,0.0877
3169.00,0.0878
3168.00,0.0879
3167.00,0.0880
3166.00,0.0880
3165.00,0.0881
3164.00,0.0882
3163.00,0.0883
3162.00,0.0884
3161.00,0.0885
3160.00,0.0886
3159.00,0.0887
3158.00,0.0888
3157.00,0.0889
3156.00,0.0891
3155.00,0.0893
3154.00,0.0894
3153.00,0.0896
3152.00,0.0898
3151.00,0.0900
3150.00,0.0902
3149.00,0.0904
3148.00,0.0906
3147.00,0.0908
3146.00,0.0909
3145.00,0.0911
3144.00,0.0913
3143.00,0.0915
3142.00,0.0917
3141.00,0.0918
3140.00,0.0920
3139.00,0.0922
3138.00,0.0923
3137.00,0.0924
3136.00,0.0926
3135.00,0.0927
3134.00,0.0928
3133.00,0.0929
3132.00,0.0931
3131.00,0.0932
3130.00,0.0933
3129.00,0.0934
3128.00,0.0935
3127.00,0.0936
3126.00,0.0937
3125.00,0.0938
3124.00,0.0939
3123.00,0.0940
3122.00,0.0941
3121.00,0.0942
3120.00,0.0943
3119.00,0.0943
3118.00,0.0944
3117.00,0.0944
3116.00,0.0945
3115.00,0.0945
3114.00,0.0945
3113.00,0.0946
3112.00,0.0946
3111.00,0.0947
3110.00,0.0948
3109.00,0.0948
3108.00,0.0949
3107.00,0.0950
3106.00,0.0950
3105.00,0.0951
3104.00,0.0952
3103.00,0.0953
3102.00,0.0954
3101.00,0.0955
3100.00,0.0957
3099.00,0.0958
3098.00,0.0960
3097.00,0.0962
3096.00,0.0964
3095.00,0.0966
3094.00,0.0968
3093.00,0.0971
3092.00,0.0973
3091.00,0.0977
3090.00,0.0980
3089.00,0.0983
3088.00,0.0986
3087.00,0.0990
3086.00,0.0993
3085.00,0.0997
3084.00,0.1001
3083.00,0.1005
3082.00,0.1008
3081.00,0.1012
3080.00,0.1017
3079.00,0.1021
3078.00,0.1026
3077.00,0.1030
3076.00,0.1035
3075.00,0.1040
3074.00,0.1046
3073.00,0.1052
3072.00,0.1058
3071.00,0.1065
3070.00,0.1073
3069.00,0.1081
3068.00,0.1089
3067.00,0.1098
3066.00,0.1107
3065.00,0.1116
3064.00,0.1125
3063.00,0.1133
3062.00,0.1142
3061.00,0.1150
3060.00,0.1158
3059.00,0.1165
3058.00,0.1172
3057.00,0.1179
3056.00,0.1184
3055.00,0.1190
3054.00,0.1195
3053.00,0.1199
3052.00,0.1204
3051.00,0.1207
3050.00,0.1210
3049.00,0.1213
3048.00,0.1216
3047.00,0.1219
3046.00,0.1222
3045.00,0.1226
3044.00,0.1230
3043.00,0.1235
3042.00,0.1241
3041.00,0.1247
3040.00,0.1255
3039.00,0.1264
3038.00,0.1274
3037.00,0.1285
3036.00,0.1297
3035.00,0.1310
3034.00,0.1324
3033.00,0.1338
3032.00,0.1353
3031.00,0.1368
3030.00,0.1383
3029.00,0.1398
3028.00,0.1413
3027.00,0.1427
3026.00,0.1441
3025.00,0.1455
3024.00,0.1469
3023.00,0.1482
3022.00,0.1495
3021.00,0.1508
3020.00,0.1521
3019.00,0.1535
3018.00,0.1548
3017.00,0.1562
3016.00,0.1576
3015.00,0.1591
3014.00,0.1607
3013.00,0.1624
3012.00,0.1642
3011.00,0.1662
3010.00,0.1683
3009.00,0.1706
3008.00,0.1731
3007.00,0.1758
3006.00,0.1787
3005.00,0.1819
3004.00,0.1854
3003.00,0.1892
3002.00,0.1932
3001.00,0.1977
3000.00,0.2025
2999.00,0.2078
2998.00,0.2135
2997.00,0.2197
2996.00,0.2264
2995.00,0.2338
2994.00,0.2418
2993.00,0.2506
2992.00,0.2602
2991.00,0.2706
2990.00,0.2821
2989.00,0.2946
2988.00,0.3084
2987.00,0.3235
2986.00,0.3400
2985.00,0.3582
2984.00,0.3781
2983.00,0.3999
2982.00,0.4239
2981.00,0.4502
2980.00,0.4792
2979.00,0.5110
2978.00,0.5460
2977.00,0.5845
2976.00,0.6269
2975.00,0.6735
2974.00,0.7244
2973.00,0.7801
2972.00,0.8407
2971.00,0.9060
2970.00,0.9761
2969.00,1.0506
2968.00,1.1292
2967.00,1.2115
2966.00,1.2970
2965.00,1.3852
2964.00,1.4750
2963.00,1.5654
2962.00,1.6550
2961.00,1.7420
2960.00,1.8246
2959.00,1.9010
2958.00,1.9704
2957.00,2.0326
2956.00,2.0879
2955.00,2.1383
2954.00,2.1863
2953.00,2.2327
2952.00,2.2769
2951.00,2.3188
2950.00,2.3602
2949.00,2.4033
2948.00,2.4490
2947.00,2.4969
2946.00,2.5446
2945.00,2.5881
2944.00,2.6235
2943.00,2.6490
2942.00,2.6641
2941.00,2.6705
2940.00,2.6742
2939.00,2.6820
2938.00,2.6952
2937.00,2.7087
2936.00,2.7183
2935.00,2.7237
2934.00,2.7247
2933.00,2.7193
2932.00,2.7060
2931.00,2.6820
2930.00,2.6415
2929.00,2.5811
2928.00,2.5057
2927.00,2.4238
2926.00,2.3394
2925.00,2.2532
2924.00,2.1655
2923.00,2.0777
2922.00,1.9910
2921.00,1.9051
2920.00,1.8204
2919.00,1.7374
2918.00,1.6572
2917.00,1.5809
2916.00,1.5094
2915.00,1.4436
2914.00,1.3840
2913.00,1.3310
2912.00,1.2844
2911.00,1.2440
2910.00,1.2091
2909.00,1.1789
2908.00,1.1523
2907.00,1.1283
2906.00,1.1058
2905.00,1.0841
2904.00,1.0626
2903.00,1.0412
2902.00,1.0199
2901.00,0.9991
2900.00,0.9789
2899.00,0.9599
2898.00,0.9420
2897.00,0.9255
2896.00,0.9104
2895.00,0.8967
2894.00,0.8842
2893.00,0.8728
2892.00,0.8625
2891.00,0.8532
2890.00,0.8452
2889.00,0.8386
2888.00,0.8338
2887.00,0.8314
2886.00,0.8316
2885.00,0.8350
2884.00,0.8417
2883.00,0.8519
2882.00,0.8655
2881.00,0.8826
2880.00,0.9031
2879.00,0.9272
2878.00,0.9551
2877.00,0.9874
2876.00,1.0243
2875.00,1.0663
2874.00,1.1140
2873.00,1.1676
2872.00,1.2271
2871.00,1.2922
2870.00,1.3624
2869.00,1.4365
2868.00,1.5125
2867.00,1.5875
2866.00,1.6579
2865.00,1.7183
2864.00,1.7630
2863.00,1.7870
2862.00,1.7877
2861.00,1.7650
2860.00,1.7208
2859.00,1.6589
2858.00,1.5834
2857.00,1.4979
2856.00,1.4058
2855.00,1.3102
2854.00,1.2139
2853.00,1.1193
2852.00,1.0283
2851.00,0.9427
2850.00,0.8635
2849.00,0.7912
2848.00,0.7261
2847.00,0.6681
2846.00,0.6169
2845.00,0.5721
2844.00,0.5330
2843.00,0.4992
2842.00,0.4702
2841.00,0.4454
2840.00,0.4243
2839.00,0.4067
2838.00,0.3920
2837.00,0.3800
2836.00,0.3703
2835.00,0.3627
2834.00,0.3566
2833.00,0.3519
2832.00,0.3482
2831.00,0.3450
2830.00,0.3421
2829.00,0.3390
2828.00,0.3354
2827.00,0.3310
2826.00,0.3257
2825.00,0.3193
2824.00,0.3119
2823.00,0.3036
2822.00,0.2946
2821.00,0.2851
2820.00,0.2753
2819.00,0.2656
2818.00,0.2561
2817.00,0.2469
2816.00,0.2384
2815.00,0.2305
2814.00,0.2232
2813.00,0.2167
2812.00,0.2109
2811.00,0.2056
2810.00,0.2008
2809.00,0.1965
2808.00,0.1925
2807.00,0.1888
2806.00,0.1855
2805.00,0.1826
2804.00,0.1802
2803.00,0.1785
2802.00,0.1772
2801.00,0.1765
2800.00,0.1762
2799.00,0.1761
2798.00,0.1759
2797.00,0.1753
2796.00,0.1741
2795.00,0.1722
2794.00,0.1696
2793.00,0.1665
2792.00,0.1629
2791.00,0.1592
2790.00,0.1554
2789.00,0.1518
2788.00,0.1485
2787.00,0.1454
2786.00,0.1427
2785.00,0.1403
2784.00,0.1382
2783.00,0.1364
2782.00,0.1348
2781.00,0.1335
2780.00,0.1323
2779.00,0.1313
2778.00,0.1303
2777.00,0.1293
2776.00,0.1283
2775.00,0.1273
2774.00,0.1262
2773.00,0.1252
2772.00,0.1242
2771.00,0.1232
2770.00,0.1224
2769.00,0.1217
2768.00,0.1211
2767.00,0.1206
2766.00,0.1202
2765.00,0.1199
2764.00,0.1195
2763.00,0.1191
2762.00,0.1186
2761.00,0.1179
2760.00,0.1171
2759.00,0.1159
2758.00,0.1146
2757.00,0.1131
2756.00,0.1114
2755.00,0.1098
2754.00,0.1083
2753.00,0.1069
2752.00,0.1056
2751.00,0.1045
2750.00,0.1035
2749.00,0.1027
2748.00,0.1020
2747.00,0.1014
2746.00,0.1009
2745.00,0.1005
2744.00,0.1001
2743.00,0.0998
2742.00,0.0995
2741.00,0.0992
2740.00,0.0990
2739.00,0.0988
2738.00,0.0987
2737.00,0.0987
2736.00,0.0986
2735.00,0.0986
2734.00,0.0985
2733.00,0.0984
2732.00,0.0983
2731.00,0.0981
2730.00,0.0978
2729.00,0.0975
2728.00,0.0971
2727.00,0.0967
2726.00,0.0963
2725.00,0.0960
2724.00,0.0957
2723.00,0.0955
2722.00,0.0953
2721.00,0.0952
2720.00,0.0953
2719.00,0.0954
2718.00,0.0955
2717.00,0.0957
2716.00,0.0958
2715.00,0.0959
2714.00,0.0960
2713.00,0.0960
2712.00,0.0960
2711.00,0.0960
2710.00,0.0961
2709.00,0.0961
2708.00,0.0962
2707.00,0.0963
2706.00,0.0965
2705.00,0.0967
2704.00,0.0969
2703.00,0.0972
2702.00,0.0975
2701.00,0.0978
2700.00,0.0982
2699.00,0.0987
2698.00,0.0992
2697.00,0.0997
2696.00,0.1002
2695.00,0.1008
2694.00,0.1015
2693.00,0.1021
2692.00,0.1029
2691.00,0.1037
2690.00,0.1047
2689.00,0.1059
2688.00,0.1073
2687.00,0.1090
2686.00,0.1112
2685.00,0.1137
2684.00,0.1166
2683.00,0.1200
2682.00,0.1238
2681.00,0.1280
2680.00,0.1324
2679.00,0.1369
2678.00,0.1412
2677.00,0.1450
2676.00,0.1482
2675.00,0.1506
2674.00,0.1524
2673.00,0.1537
2672.00,0.1545
2671.00,0.1550
2670.00,0.1550
2669.00,0.1544
2668.00,0.1529
2667.00,0.1505
2666.00,0.1472
2665.00,0.1432
2664.00,0.1390
2663.00,0.1348
2662.00,0.1309
2661.00,0.1276
2660.00,0.1248
2659.00,0.1227
2658.00,0.1211
2657.00,0.1201
2656.00,0.1194
2655.00,0.1191
2654.00,0.1189
2653.00,0.1188
2652.00,0.1188
2651.00,0.1186
2650.00,0.1183
2649.00,0.1178
2648.00,0.1172
2647.00,0.1164
2646.00,0.1153
2645.00,0.1140
2644.00,0.1124
2643.00,0.1107
2642.00,0.1089
2641.00,0.1071
2640.00,0.1053
2639.00,0.1036
2638.00,0.1020
2637.00,0.1006
2636.00,0.0994
2635.00,0.0984
2634.00,0.0975
2633.00,0.0968
2632.00,0.0963
2631.00,0.0959
2630.00,0.0956
2629.00,0.0955
2628.00,0.0955
2627.00,0.0957
2626.00,0.0959
2625.00,0.0963
2624.00,0.0968
2623.00,0.0974
2622.00,0.0980
2621.00,0.0988
2620.00,0.0996
2619.00,0.1004
2618.00,0.1012
2617.00,0.1019
2616.00,0.1027
2615.00,0.1033
2614.00,0.1039
2613.00,0.1044
2612.00,0.1047
2611.00,0.1049
2610.00,0.1049
2609.00,0.1047
2608.00,0.1042
2607.00,0.1034
2606.00,0.1024
2605.00,0.1013
2604.00,0.1001
2603.00,0.0988
2602.00,0.0977
2601.00,0.0966
2600.00,0.0957
2599.00,0.0948
2598.00,0.0941
2597.00,0.0935
2596.00,0.0930
2595.00,0.0926
2594.00,0.0923
2593.00,0.0922
2592.00,0.0922
2591.00,0.0922
2590.00,0.0923
2589.00,0.0924
2588.00,0.0926
2587.00,0.0928
2586.00,0.0929
2585.00,0.0930
2584.00,0.0930
2583.00,0.0931
2582.00,0.0930
2581.00,0.0930
2580.00,0.0930
2579.00,0.0931
2578.00,0.0932
2577.00,0.0933
2576.00,0.0935
2575.00,0.0936
2574.00,0.0938
2573.00,0.0939
2572.00,0.0940
2571.00,0.0942
2570.00,0.0942
2569.00,0.0942
2568.00,0.0942
2567.00,0.0940
2566.00,0.0938
2565.00,0.0935
2564.00,0.0931
2563.00,0.0927
2562.00,0.0922
2561.00,0.0917
2560.00,0.0912
2559.00,0.0907
2558.00,0.0903
2557.00,0.0898
2556.00,0.0895
2555.00,0.0891
2554.00,0.0889
2553.00,0.0887
2552.00,0.0886
2551.00,0.0885
2550.00,0.0885
2549.00,0.0886
2548.00,0.0888
2547.00,0.0890
2546.00,0.0892
2545.00,0.0895
2544.00,0.0898
2543.00,0.0900
2542.00,0.0903
2541.00,0.0905
2540.00,0.0907
2539.00,0.0909
2538.00,0.0911
2537.00,0.0913
2536.00,0.0915
2535.00,0.0917
2534.00,0.0919
2533.00,0.0920
2532.00,0.0921
2531.00,0.0921
2530.00,0.0921
2529.00,0.0921
2528.00,0.0920
2527.00,0.0919
2526.00,0.0917
2525.00,0.0915
2524.00,0.0913
2523.00,0.0910
2522.00,0.0906
2521.00,0.0902
2520.00,0.0896
2519.00,0.0890
2518.00,0.0884
2517.00,0.0877
2516.00,0.0871
2515.00,0.0866
2514.00,0.0860
2513.00,0.0856
2512.00,0.0851
2511.00,0.0848
2510.00,0.0844
2509.00,0.0841
2508.00,0.0838
2507.00,0.0836
2506.00,0.0834
2505.00,0.0832
2504.00,0.0831
2503.00,0.0829
2502.00,0.0828
2501.00,0.0827
2500.00,0.0826
2499.00,0.0825
2498.00,0.0824
2497.00,0.0824
2496.00,0.0824
2495.00,0.0825
2494.00,0.0825
2493.00,0.0825
2492.00,0.0826
2491.00,0.0827
2490.00,0.0827
2489.00,0.0828
2488.00,0.0829
2487.00,0.0831
2486.00,0.0832
2485.00,0.0834
2484.00,0.0835
2483.00,0.0837
2482.00,0.0838
2481.00,0.0839
2480.00,0.0840
2479.00,0.0841
2478.00,0.0843
2477.00,0.0844
2476.00,0.0846
2475.00,0.0849
2474.00,0.0852
2473.00,0.0856
2472.00,0.0861
2471.00,0.0866
2470.00,0.0871
2469.00,0.0877
2468.00,0.0882
2467.00,0.0886
2466.00,0.0889
2465.00,0.0890
2464.00,0.0891
2463.00,0.0890
2462.00,0.0889
2461.00,0.0887
2460.00,0.0884
2459.00,0.0882
2458.00,0.0880
2457.00,0.0878
2456.00,0.0877
2455.00,0.0876
2454.00,0.0876
2453.00,0.0876
2452.00,0.0876
2451.00,0.0876
2450.00,0.0875
2449.00,0.0874
2448.00,0.0873
2447.00,0.0871
2446.00,0.0869
2445.00,0.0868
2444.00,0.0866
2443.00,0.0864
2442.00,0.0862
2441.00,0.0861
2440.00,0.0860
2439.00,0.0859
2438.00,0.0857
2437.00,0.0857
2436.00,0.0856
2435.00,0.0856
2434.00,0.0857
2433.00,0.0859
2432.00,0.0863
2431.00,0.0867
2430.00,0.0872
2429.00,0.0877
2428.00,0.0882
2427.00,0.0887
2426.00,0.0890
2425.00,0.0893
2424.00,0.0894
2423.00,0.0895
2422.00,0.0895
2421.00,0.0895
2420.00,0.0894
2419.00,0.0893
2418.00,0.0890
2417.00,0.0887
2416.00,0.0883
2415.00,0.0878
2414.00,0.0873
2413.00,0.0869
2412.00,0.0865
2411.00,0.0861
2410.00,0.0858
2409.00,0.0854
2408.00,0.0851
2407.00,0.0848
2406.00,0.0844
2405.00,0.0841
2404.00,0.0839
2403.00,0.0836
2402.00,0.0835
2401.00,0.0833
2400.00,0.0833
2399.00,0.0832
2398.00,0.0833
2397.00,0.0833
2396.00,0.0834
2395.00,0.0834
2394.00,0.0835
2393.00,0.0836
2392.00,0.0838
2391.00,0.0839
2390.00,0.0841
2389.00,0.0844
2388.00,0.0847
2387.00,0.0850
2386.00,0.0854
2385.00,0.0858
2384.00,0.0862
2383.00,0.0866
2382.00,0.0870
2381.00,0.0874
2380.00,0.0878
2379.00,0.0881
2378.00,0.0884
2377.00,0.0887
2376.00,0.0888
2375.00,0.0889
2374.00,0.0888
2373.00,0.0886
2372.00,0.0883
2371.00,0.0880
2370.00,0.0878
2369.00,0.0877
2368.00,0.0877
2367.00,0.0878
2366.00,0.0880
2365.00,0.0883
2364.00,0.0887
2363.00,0.0891
2362.00,0.0894
2361.00,0.0897
2360.00,0.0899
2359.00,0.0901
2358.00,0.0902
2357.00,0.0901
2356.00,0.0901
2355.00,0.0900
2354.00,0.0898
2353.00,0.0896
2352.00,0.0898
2351.00,0.0902
2350.00,0.0905
2349.00,0.0905
2348.00,0.0905
2347.00,0.0908
2346.00,0.0914
2345.00,0.0919
2344.00,0.0919
2343.00,0.0914
2342.00,0.0909
2341.00,0.0906
2340.00,0.0906
2339.00,0.0906
2338.00,0.0907
2337.00,0.0907
2336.00,0.0907
2335.00,0.0908
2334.00,0.0909
2333.00,0.0910
2332.00,0.0912
2331.00,0.0915
2330.00,0.0916
2329.00,0.0917
2328.00,0.0916
2327.00,0.0915
2326.00,0.0911
2325.00,0.0907
2324.00,0.0902
2323.00,0.0896
2322.00,0.0890
2321.00,0.0883
2320.00,0.0877
2319.00,0.0872
2318.00,0.0868
2317.00,0.0864
2316.00,0.0862
2315.00,0.0860
2314.00,0.0859
2313.00,0.0858
2312.00,0.0857
2311.00,0.0856
2310.00,0.0854
2309.00,0.0853
2308.00,0.0852
2307.00,0.0851
2306.00,0.0851
2305.00,0.0851
2304.00,0.0852
2303.00,0.0853
2302.00,0.0855
2301.00,0.0857
2300.00,0.0860
2299.00,0.0863
2298.00,0.0865
2297.00,0.0868
2296.00,0.0871
2295.00,0.0874
2294.00,0.0876
2293.00,0.0877
2292.00,0.0878
2291.00,0.0877
2290.00,0.0876
2289.00,0.0873
2288.00,0.0870
2287.00,0.0866
2286.00,0.0862
2285.00,0.0858
2284.00,0.0854
2283.00,0.0850
2282.00,0.0847
2281.00,0.0845
2280.00,0.0844
2279.00,0.0844
2278.00,0.0844
2277.00,0.0845
2276.00,0.0847
2275.00,0.0849
2274.00,0.0851
2273.00,0.0853
2272.00,0.0854
2271.00,0.0855
2270.00,0.0855
2269.00,0.0853
2268.00,0.0851
2267.00,0.0849
2266.00,0.0846
2265.00,0.0843
2264.00,0.0841
2263.00,0.0839
2262.00,0.0838
2261.00,0.0838
2260.00,0.0839
2259.00,0.0840
2258.00,0.0842
2257.00,0.0844
2256.00,0.0845
2255.00,0.0846
2254.00,0.0846
2253.00,0.0845
2252.00,0.0844
2251.00,0.0844
2250.00,0.0844
2249.00,0.0845
2248.00,0.0847
2247.00,0.0850
2246.00,0.0853
2245.00,0.0856
2244.00,0.0858
2243.00,0.0860
2242.00,0.0862
2241.00,0.0864
2240.00,0.0865
2239.00,0.0867
2238.00,0.0869
2237.00,0.0871
2236.00,0.0872
2235.00,0.0873
2234.00,0.0873
2233.00,0.0874
2232.00,0.0874
2231.00,0.0874
2230.00,0.0874
2229.00,0.0874
2228.00,0.0874
2227.00,0.0874
2226.00,0.0874
2225.00,0.0874
2224.00,0.0875
2223.00,0.0875
2222.00,0.0875
2221.00,0.0875
2220.00,0.0875
2219.00,0.0875
2218.00,0.0876
2217.00,0.0877
2216.00,0.0879
2215.00,0.0881
2214.00,0.0883
2213.00,0.0885
2212.00,0.0887
2211.00,0.0888
2210.00,0.0889
2209.00,0.0889
2208.00,0.0889
2207.00,0.0889
2206.00,0.0889
2205.00,0.0889
2204.00,0.0890
2203.00,0.0890
2202.00,0.0890
2201.00,0.0890
2200.00,0.0890
2199.00,0.0889
2198.00,0.0887
2197.00,0.0885
2196.00,0.0884
2195.00,0.0883
2194.00,0.0882
2193.00,0.0883
2192.00,0.0885
2191.00,0.0887
2190.00,0.0891
2189.00,0.0895
2188.00,0.0901
2187.00,0.0907
2186.00,0.0914
2185.00,0.0920
2184.00,0.0928
2183.00,0.0935
2182.00,0.0944
2181.00,0.0954
2180.00,0.0965
2179.00,0.0977
2178.00,0.0989
2177.00,0.0999
2176.00,0.1006
2175.00,0.1009
2174.00,0.1007
2173.00,0.1001
2172.00,0.0992
2171.00,0.0981
2170.00,0.0968
2169.00,0.0955
2168.00,0.0942
2167.00,0.0929
2166.00,0.0917
2165.00,0.0906
2164.00,0.0896
2163.00,0.0886
2162.00,0.0877
2161.00,0.0870
2160.00,0.0863
2159.00,0.0857
2158.00,0.0851
2157.00,0.0847
2156.00,0.0843
2155.00,0.0840
2154.00,0.0838
2153.00,0.0836
2152.00,0.0834
2151.00,0.0833
2150.00,0.0833
2149.00,0.0833
2148.00,0.0833
2147.00,0.0833
2146.00,0.0834
2145.00,0.0835
2144.00,0.0836
2143.00,0.0838
2142.00,0.0841
2141.00,0.0844
2140.00,0.0849
2139.00,0.0854
2138.00,0.0860
2137.00,0.0865
2136.00,0.0871
2135.00,0.0877
2134.00,0.0881
2133.00,0.0884
2132.00,0.0886
2131.00,0.0886
2130.00,0.0885
2129.00,0.0883
2128.00,0.0879
2127.00,0.0874
2126.00,0.0870
2125.00,0.0865
2124.00,0.0861
2123.00,0.0857
2122.00,0.0854
2121.00,0.0852
2120.00,0.0851
2119.00,0.0851
2118.00,0.0850
2117.00,0.0850
2116.00,0.0850
2115.00,0.0850
2114.00,0.0849
2113.00,0.0849
2112.00,0.0849
2111.00,0.0849
2110.00,0.0850
2109.00,0.0851
2108.00,0.0853
2107.00,0.0855
2106.00,0.0858
2105.00,0.0862
2104.00,0.0866
2103.00,0.0870
2102.00,0.0875
2101.00,0.0880
2100.00,0.0885
2099.00,0.0891
2098.00,0.0896
2097.00,0.0901
2096.00,0.0905
2095.00,0.0908
2094.00,0.0909
2093.00,0.0910
2092.00,0.0910
2091.00,0.0909
2090.00,0.0906
2089.00,0.0903
2088.00,0.0899
2087.00,0.0894
2086.00,0.0887
2085.00,0.0881
2084.00,0.0874
2083.00,0.0869
2082.00,0.0863
2081.00,0.0859
2080.00,0.0856
2079.00,0.0854
2078.00,0.0854
2077.00,0.0855
2076.00,0.0857
2075.00,0.0862
2074.00,0.0868
2073.00,0.0876
2072.00,0.0886
2071.00,0.0898
2070.00,0.0911
2069.00,0.0926
2068.00,0.0942
2067.00,0.0959
2066.00,0.0975
2065.00,0.0990
2064.00,0.1001
2063.00,0.1009
2062.00,0.1012
2061.00,0.1009
2060.00,0.1003
2059.00,0.0992
2058.00,0.0978
2057.00,0.0961
2056.00,0.0943
2055.00,0.0925
2054.00,0.0907
2053.00,0.0890
2052.00,0.0874
2051.00,0.0861
2050.00,0.0848
2049.00,0.0838
2048.00,0.0829
2047.00,0.0821
2046.00,0.0814
2045.00,0.0809
2044.00,0.0805
2043.00,0.0802
2042.00,0.0800
2041.00,0.0798
2040.00,0.0797
2039.00,0.0797
2038.00,0.0797
2037.00,0.0797
2036.00,0.0799
2035.00,0.0800
2034.00,0.0801
2033.00,0.0802
2032.00,0.0803
2031.00,0.0803
2030.00,0.0804
2029.00,0.0805
2028.00,0.0806
2027.00,0.0808
2026.00,0.0811
2025.00,0.0813
2024.00,0.0817
2023.00,0.0820
2022.00,0.0823
2021.00,0.0826
2020.00,0.0829
2019.00,0.0832
2018.00,0.0834
2017.00,0.0836
2016.00,0.0837
2015.00,0.0837
2014.00,0.0837
2013.00,0.0838
2012.00,0.0838
2011.00,0.0839
2010.00,0.0840
2009.00,0.0840
2008.00,0.0839
2007.00,0.0838
2006.00,0.0836
2005.00,0.0832
2004.00,0.0829
2003.00,0.0826
2002.00,0.0823
2001.00,0.0821
2000.00,0.0819
1999.00,0.0818
1998.00,0.0817
1997.00,0.0817
1996.00,0.0817
1995.00,0.0818
1994.00,0.0819
1993.00,0.0820
1992.00,0.0823
1991.00,0.0826
1990.00,0.0830
1989.00,0.0833
1988.00,0.0839
1987.00,0.0846
1986.00,0.0855
1985.00,0.0864
1984.00,0.0876
1983.00,0.0888
1982.00,0.0901
1981.00,0.0913
1980.00,0.0926
1979.00,0.0938
1978.00,0.0949
1977.00,0.0957
1976.00,0.0964
1975.00,0.0968
1974.00,0.0969
1973.00,0.0967
1972.00,0.0964
1971.00,0.0959
1970.00,0.0953
1969.00,0.0947
1968.00,0.0942
1967.00,0.0937
1966.00,0.0931
1965.00,0.0925
1964.00,0.0920
1963.00,0.0916
1962.00,0.0912
1961.00,0.0910
1960.00,0.0908
1959.00,0.0907
1958.00,0.0907
1957.00,0.0907
1956.00,0.0908
1955.00,0.0910
1954.00,0.0913
1953.00,0.0916
1952.00,0.0919
1951.00,0.0923
1950.00,0.0927
1949.00,0.0931
1948.00,0.0935
1947.00,0.0939
1946.00,0.0942
1945.00,0.0943
1944.00,0.0942
1943.00,0.0940
1942.00,0.0935
1941.00,0.0927
1940.00,0.0918
1939.00,0.0907
1938.00,0.0895
1937.00,0.0885
1936.00,0.0877
1935.00,0.0869
1934.00,0.0862
1933.00,0.0856
1932.00,0.0851
1931.00,0.0847
1930.00,0.0843
1929.00,0.0839
1928.00,0.0837
1927.00,0.0835
1926.00,0.0834
1925.00,0.0833
1924.00,0.0833
1923.00,0.0835
1922.00,0.0836
1921.00,0.0837
1920.00,0.0836
1919.00,0.0836
1918.00,0.0838
1917.00,0.0841
1916.00,0.0844
1915.00,0.0847
1914.00,0.0848
1913.00,0.0850
1912.00,0.0853
1911.00,0.0855
1910.00,0.0857
1909.00,0.0858
1908.00,0.0857
1907.00,0.0856
1906.00,0.0853
1905.00,0.0851
1904.00,0.0848
1903.00,0.0847
1902.00,0.0846
1901.00,0.0844
1900.00,0.0843
1899.00,0.0842
1898.00,0.0842
1897.00,0.0842
1896.00,0.0842
1895.00,0.0843
1894.00,0.0844
1893.00,0.0846
1892.00,0.0848
1891.00,0.0851
1890.00,0.0855
1889.00,0.0862
1888.00,0.0870
1887.00,0.0878
1886.00,0.0887
1885.00,0.0897
1884.00,0.0910
1883.00,0.0924
1882.00,0.0938
1881.00,0.0951
1880.00,0.0964
1879.00,0.0978
1878.00,0.0992
1877.00,0.1006
1876.00,0.1021
1875.00,0.1036
1874.00,0.1050
1873.00,0.1063
1872.00,0.1073
1871.00,0.1079
1870.00,0.1082
1869.00,0.1081
1868.00,0.1076
1867.00,0.1065
1866.00,0.1049
1865.00,0.1029
1864.00,0.1010
1863.00,0.0992
1862.00,0.0976
1861.00,0.0962
1860.00,0.0949
1859.00,0.0938
1858.00,0.0929
1857.00,0.0921
1856.00,0.0915
1855.00,0.0910
1854.00,0.0905
1853.00,0.0901
1852.00,0.0899
1851.00,0.0899
1850.00,0.0899
1849.00,0.0901
1848.00,0.0906
1847.00,0.0911
1846.00,0.0915
1845.00,0.0919
1844.00,0.0926
1843.00,0.0936
1842.00,0.0946
1841.00,0.0955
1840.00,0.0963
1839.00,0.0974
1838.00,0.0987
1837.00,0.1001
1836.00,0.1015
1835.00,0.1029
1834.00,0.1044
1833.00,0.1059
1832.00,0.1073
1831.00,0.1087
1830.00,0.1102
1829.00,0.1117
1828.00,0.1132
1827.00,0.1143
1826.00,0.1154
1825.00,0.1166
1824.00,0.1183
1823.00,0.1202
1822.00,0.1221
1821.00,0.1244
1820.00,0.1272
1819.00,0.1306
1818.00,0.1344
1817.00,0.1387
1816.00,0.1435
1815.00,0.1490
1814.00,0.1551
1813.00,0.1618
1812.00,0.1690
1811.00,0.1765
1810.00,0.1838
1809.00,0.1903
1808.00,0.1955
1807.00,0.1988
1806.00,0.2001
1805.00,0.1994
1804.00,0.1967
1803.00,0.1923
1802.00,0.1866
1801.00,0.1799
1800.00,0.1728
1799.00,0.1658
1798.00,0.1593
1797.00,0.1537
1796.00,0.1489
1795.00,0.1449
1794.00,0.1414
1793.00,0.1385
1792.00,0.1363
1791.00,0.1349
1790.00,0.1340
1789.00,0.1334
1788.00,0.1334
1787.00,0.1340
1786.00,0.1352
1785.00,0.1369
1784.00,0.1392
1783.00,0.1420
1782.00,0.1452
1781.00,0.1491
1780.00,0.1539
1779.00,0.1596
1778.00,0.1658
1777.00,0.1729
1776.00,0.1812
1775.00,0.1907
1774.00,0.2017
1773.00,0.2152
1772.00,0.2319
1771.00,0.2507
1770.00,0.2694
1769.00,0.2867
1768.00,0.3017
1767.00,0.3128
1766.00,0.3188
1765.00,0.3198
1764.00,0.3176
1763.00,0.3140
1762.00,0.3105
1761.00,0.3086
1760.00,0.3086
1759.00,0.3104
1758.00,0.3142
1757.00,0.3203
1756.00,0.3291
1755.00,0.3404
1754.00,0.3537
1753.00,0.3691
1752.00,0.3862
1751.00,0.4035
1750.00,0.4180
1749.00,0.4279
1748.00,0.4335
1747.00,0.4369
1746.00,0.4406
1745.00,0.4467
1744.00,0.4563
1743.00,0.4697
1742.00,0.4864
1741.00,0.5066
1740.00,0.5309
1739.00,0.5597
1738.00,0.5916
1737.00,0.6257
1736.00,0.6642
1735.00,0.7137
1734.00,0.7816
1733.00,0.8684
1732.00,0.9674
1731.00,1.0769
1730.00,1.2041
1729.00,1.3585
1728.00,1.5446
1727.00,1.7623
1726.00,2.0088
1725.00,2.2799
1724.00,2.5637
1723.00,2.8371
1722.00,3.0726
1721.00,3.2066
1720.00,3.2268
1719.00,3.2179
1718.00,3.2306
1717.00,3.2327
1716.00,3.2031
1715.00,3.2034
1714.00,3.2545
1713.00,3.2821
1712.00,3.2474
1711.00,3.2359
1710.00,3.2924
1709.00,3.3261
1708.00,3.2617
1707.00,3.2170
1706.00,3.2595
1705.00,3.2804
1704.00,3.1843
1703.00,3.0594
1702.00,2.8618
1701.00,2.5003
1700.00,2.1284
1699.00,1.8415
1698.00,1.6132
1697.00,1.4043
1696.00,1.2074
1695.00,1.0400
1694.00,0.9122
1693.00,0.8158
1692.00,0.7384
1691.00,0.6730
1690.00,0.6175
1689.00,0.5718
1688.00,0.5356
1687.00,0.5077
1686.00,0.4858
1685.00,0.4675
1684.00,0.4529
1683.00,0.4435
1682.00,0.4392
1681.00,0.4387
1680.00,0.4410
1679.00,0.4451
1678.00,0.4493
1677.00,0.4512
1676.00,0.4488
1675.00,0.4415
1674.00,0.4302
1673.00,0.4166
1672.00,0.4017
1671.00,0.3858
1670.00,0.3685
1669.00,0.3493
1668.00,0.3290
1667.00,0.3088
1666.00,0.2897
1665.00,0.2717
1664.00,0.2545
1663.00,0.2389
1662.00,0.2256
1661.00,0.2149
1660.00,0.2064
1659.00,0.1999
1658.00,0.1951
1657.00,0.1920
1656.00,0.1899
1655.00,0.1883
1654.00,0.1870
1653.00,0.1868
1652.00,0.1872
1651.00,0.1878
1650.00,0.1885
1649.00,0.1894
1648.00,0.1904
1647.00,0.1913
1646.00,0.1921
1645.00,0.1924
1644.00,0.1923
1643.00,0.1922
1642.00,0.1926
1641.00,0.1935
1640.00,0.1947
1639.00,0.1963
1638.00,0.1984
1637.00,0.2005
1636.00,0.2025
1635.00,0.2040
1634.00,0.2043
1633.00,0.2027
1632.00,0.1990
1631.00,0.1935
1630.00,0.1865
1629.00,0.1783
1628.00,0.1696
1627.00,0.1613
1626.00,0.1538
1625.00,0.1471
1624.00,0.1411
1623.00,0.1360
1622.00,0.1320
1621.00,0.1289
1620.00,0.1265
1619.00,0.1245
1618.00,0.1227
1617.00,0.1210
1616.00,0.1196
1615.00,0.1182
1614.00,0.1171
1613.00,0.1162
1612.00,0.1154
1611.00,0.1147
1610.00,0.1140
1609.00,0.1133
1608.00,0.1124
1607.00,0.1116
1606.00,0.1107
1605.00,0.1100
1604.00,0.1095
1603.00,0.1090
1602.00,0.1086
1601.00,0.1084
1600.00,0.1082
1599.00,0.1081
1598.00,0.1081
1597.00,0.1083
1596.00,0.1086
1595.00,0.1091
1594.00,0.1097
1593.00,0.1106
1592.00,0.1116
1591.00,0.1126
1590.00,0.1134
1589.00,0.1137
1588.00,0.1133
1587.00,0.1120
1586.00,0.1100
1585.00,0.1077
1584.00,0.1053
1583.00,0.1031
1582.00,0.1011
1581.00,0.0996
1580.00,0.0985
1579.00,0.0978
1578.00,0.0971
1577.00,0.0963
1576.00,0.0956
1575.00,0.0949
1574.00,0.0944
1573.00,0.0940
1572.00,0.0938
1571.00,0.0935
1570.00,0.0935
1569.00,0.0937
1568.00,0.0940
1567.00,0.0941
1566.00,0.0941
1565.00,0.0943
1564.00,0.0948
1563.00,0.0955
1562.00,0.0961
1561.00,0.0962
1560.00,0.0961
1559.00,0.0964
1558.00,0.0970
1557.00,0.0972
1556.00,0.0973
1555.00,0.0975
1554.00,0.0979
1553.00,0.0986
1552.00,0.0993
1551.00,0.0998
1550.00,0.1004
1549.00,0.1010
1548.00,0.1015
1547.00,0.1020
1546.00,0.1025
1545.00,0.1033
1544.00,0.1043
1543.00,0.1049
1542.00,0.1050
1541.00,0.1050
1540.00,0.1049
1539.00,0.1047
1538.00,0.1046
1537.00,0.1046
1536.00,0.1048
1535.00,0.1050
1534.00,0.1055
1533.00,0.1062
1532.00,0.1068
1531.00,0.1072
1530.00,0.1074
1529.00,0.1077
1528.00,0.1081
1527.00,0.1086
1526.00,0.1090
1525.00,0.1094
1524.00,0.1098
1523.00,0.1101
1522.00,0.1105
1521.00,0.1112
1520.00,0.1118
1519.00,0.1121
1518.00,0.1125
1517.00,0.1132
1516.00,0.1142
1515.00,0.1151
1514.00,0.1159
1513.00,0.1168
1512.00,0.1182
1511.00,0.1200
1510.00,0.1221
1509.00,0.1242
1508.00,0.1260
1507.00,0.1275
1506.00,0.1284
1505.00,0.1291
1504.00,0.1303
1503.00,0.1317
1502.00,0.1334
1501.00,0.1353
1500.00,0.1371
1499.00,0.1386
1498.00,0.1398
1497.00,0.1406
1496.00,0.1409
1495.00,0.1406
1494.00,0.1401
1493.00,0.1397
1492.00,0.1396
1491.00,0.1399
1490.00,0.1405
1489.00,0.1413
1488.00,0.1420
1487.00,0.1426
1486.00,0.1435
1485.00,0.1448
1484.00,0.1467
1483.00,0.1489
1482.00,0.1515
1481.00,0.1548
1480.00,0.1587
1479.00,0.1630
1478.00,0.1678
1477.00,0.1737
1476.00,0.1809
1475.00,0.1889
1474.00,0.1981
1473.00,0.2092
1472.00,0.2229
1471.00,0.2387
1470.00,0.2566
1469.00,0.2775
1468.00,0.3022
1467.00,0.3309
1466.00,0.3630
1465.00,0.3963
1464.00,0.4257
1463.00,0.4461
1462.00,0.4571
1461.00,0.4636
1460.00,0.4713
1459.00,0.4855
1458.00,0.5129
1457.00,0.5614
1456.00,0.6338
1455.00,0.7245
1454.00,0.8280
1453.00,0.9452
1452.00,1.0742
1451.00,1.1968
1450.00,1.2774
1449.00,1.2807
1448.00,1.2000
1447.00,1.0688
1446.00,0.9296
1445.00,0.8052
1444.00,0.7014
1443.00,0.6190
1442.00,0.5580
1441.00,0.5171
1440.00,0.4934
1439.00,0.4845
1438.00,0.4897
1437.00,0.5102
1436.00,0.5451
1435.00,0.5898
1434.00,0.6391
1433.00,0.6898
1432.00,0.7385
1431.00,0.7789
1430.00,0.8065
1429.00,0.8212
1428.00,0.8258
1427.00,0.8247
1426.00,0.8230
1425.00,0.8249
1424.00,0.8300
1423.00,0.8338
1422.00,0.8318
1421.00,0.8188
1420.00,0.7888
1419.00,0.7401
1418.00,0.6803
1417.00,0.6195
1416.00,0.5618
1415.00,0.5080
1414.00,0.4596
1413.00,0.4174
1412.00,0.3813
1411.00,0.3503
1410.00,0.3244
1409.00,0.3030
1408.00,0.2852
1407.00,0.2703
1406.00,0.2577
1405.00,0.2471
1404.00,0.2377
1403.00,0.2294
1402.00,0.2223
1401.00,0.2161
1400.00,0.2104
1399.00,0.2048
1398.00,0.1996
1397.00,0.1946
1396.00,0.1895
1395.00,0.1843
1394.00,0.1793
1393.00,0.1749
1392.00,0.1709
1391.00,0.1677
1390.00,0.1651
1389.00,0.1631
1388.00,0.1612
1387.00,0.1593
1386.00,0.1576
1385.00,0.1559
1384.00,0.1545
1383.00,0.1534
1382.00,0.1528
1381.00,0.1527
1380.00,0.1527
1379.00,0.1530
1378.00,0.1534
1377.00,0.1540
1376.00,0.1547
1375.00,0.1554
1374.00,0.1563
1373.00,0.1572
1372.00,0.1580
1371.00,0.1588
1370.00,0.1600
1369.00,0.1615
1368.00,0.1632
1367.00,0.1651
1366.00,0.1673
1365.00,0.1700
1364.00,0.1730
1363.00,0.1765
1362.00,0.1803
1361.00,0.1847
1360.00,0.1898
1359.00,0.1962
1358.00,0.2047
1357.00,0.2160
1356.00,0.2311
1355.00,0.2515
1354.00,0.2791
1353.00,0.3161
1352.00,0.3647
1351.00,0.4259
1350.00,0.4984
1349.00,0.5753
1348.00,0.6431
1347.00,0.6850
1346.00,0.6915
1345.00,0.6699
1344.00,0.6393
1343.00,0.6181
1342.00,0.6181
1341.00,0.6434
1340.00,0.6875
1339.00,0.7297
1338.00,0.7393
1337.00,0.7001
1336.00,0.6271
1335.00,0.5474
1334.00,0.4786
1333.00,0.4263
1332.00,0.3897
1331.00,0.3660
1330.00,0.3519
1329.00,0.3452
1328.00,0.3441
1327.00,0.3480
1326.00,0.3568
1325.00,0.3707
1324.00,0.3900
1323.00,0.4151
1322.00,0.4464
1321.00,0.4849
1320.00,0.5317
1319.00,0.5885
1318.00,0.6571
1317.00,0.7387
1316.00,0.8343
1315.00,0.9433
1314.00,1.0619
1313.00,1.1787
1312.00,1.2679
1311.00,1.2938
1310.00,1.2397
1309.00,1.1272
1308.00,0.9924
1307.00,0.8600
1306.00,0.7420
1305.00,0.6419
1304.00,0.5590
1303.00,0.4912
1302.00,0.4359
1301.00,0.3907
1300.00,0.3534
1299.00,0.3225
1298.00,0.2969
1297.00,0.2757
1296.00,0.2581
1295.00,0.2436
1294.00,0.2316
1293.00,0.2218
1292.00,0.2137
1291.00,0.2070
1290.00,0.2015
1289.00,0.1969
1288.00,0.1932
1287.00,0.1900
1286.00,0.1875
1285.00,0.1856
1284.00,0.1842
1283.00,0.1831
1282.00,0.1826
1281.00,0.1824
1280.00,0.1825
1279.00,0.1829
1278.00,0.1838
1277.00,0.1851
1276.00,0.1869
1275.00,0.1893
1274.00,0.1927
1273.00,0.1973
1272.00,0.2035
1271.00,0.2120
1270.00,0.2234
1269.00,0.2381
1268.00,0.2555
1267.00,0.2737
1266.00,0.2895
1265.00,0.2990
1264.00,0.2999
1263.00,0.2928
1262.00,0.2809
1261.00,0.2676
1260.00,0.2555
1259.00,0.2459
1258.00,0.2393
1257.00,0.2354
1256.00,0.2338
1255.00,0.2340
1254.00,0.2358
1253.00,0.2389
1252.00,0.2429
1251.00,0.2476
1250.00,0.2527
1249.00,0.2582
1248.00,0.2638
1247.00,0.2697
1246.00,0.2761
1245.00,0.2831
1244.00,0.2910
1243.00,0.3000
1242.00,0.3105
1241.00,0.3227
1240.00,0.3367
1239.00,0.3523
1238.00,0.3694
1237.00,0.3880
1236.00,0.4079
1235.00,0.4296
1234.00,0.4540
1233.00,0.4823
1232.00,0.5162
1231.00,0.5578
1230.00,0.6097
1229.00,0.6751
1228.00,0.7571
1227.00,0.8586
1226.00,0.9813
1225.00,1.1244
1224.00,1.2801
1223.00,1.4252
1222.00,1.5170
1221.00,1.5132
1220.00,1.4163
1219.00,1.2697
1218.00,1.1129
1217.00,0.9670
1216.00,0.8390
1215.00,0.7306
1214.00,0.6410
1213.00,0.5681
1212.00,0.5094
1211.00,0.4625
1210.00,0.4253
1209.00,0.3956
1208.00,0.3716
1207.00,0.3516
1206.00,0.3342
1205.00,0.3188
1204.00,0.3048
1203.00,0.2923
1202.00,0.2814
1201.00,0.2721
1200.00,0.2641
1199.00,0.2573
1198.00,0.2515
1197.00,0.2467
1196.00,0.2425
1195.00,0.2390
1194.00,0.2361
1193.00,0.2337
1192.00,0.2316
1191.00,0.2299
1190.00,0.2286
1189.00,0.2276
1188.00,0.2268
1187.00,0.2263
1186.00,0.2260
1185.00,0.2259
1184.00,0.2259
1183.00,0.2261
1182.00,0.2264
1181.00,0.2269
1180.00,0.2274
1179.00,0.2279
1178.00,0.2285
1177.00,0.2293
1176.00,0.2302
1175.00,0.2311
1174.00,0.2321
1173.00,0.2333
1172.00,0.2345
1171.00,0.2359
1170.00,0.2374
1169.00,0.2391
1168.00,0.2407
1167.00,0.2424
1166.00,0.2441
1165.00,0.2458
1164.00,0.2475
1163.00,0.2491
1162.00,0.2507
1161.00,0.2523
1160.00,0.2539
1159.00,0.2556
1158.00,0.2573
1157.00,0.2591
1156.00,0.2610
1155.00,0.2630
1154.00,0.2651
1153.00,0.2674
1152.00,0.2699
1151.00,0.2724
1150.00,0.2752
1149.00,0.2782
1148.00,0.2814
1147.00,0.2848
1146.00,0.2887
1145.00,0.2929
1144.00,0.2974
1143.00,0.3025
1142.00,0.3080
1141.00,0.3141
1140.00,0.3207
1139.00,0.3280
1138.00,0.3362
1137.00,0.3456
1136.00,0.3561
1135.00,0.3682
1134.00,0.3821
1133.00,0.3983
1132.00,0.4173
1131.00,0.4396
1130.00,0.4662
1129.00,0.4984
1128.00,0.5377
1127.00,0.5863
1126.00,0.6471
1125.00,0.7232
1124.00,0.8181
1123.00,0.9335
1122.00,1.0683
1121.00,1.2145
1120.00,1.3491
1119.00,1.4277
1118.00,1.4130
1117.00,1.3169
1116.00,1.1838
1115.00,1.0478
1114.00,0.9245
1113.00,0.8191
1112.00,0.7318
1111.00,0.6606
1110.00,0.6036
1109.00,0.5586
1108.00,0.5232
1107.00,0.4956
1106.00,0.4741
1105.00,0.4574
1104.00,0.4445
1103.00,0.4344
1102.00,0.4266
1101.00,0.4207
1100.00,0.4162
1099.00,0.4128
1098.00,0.4104
1097.00,0.4089
1096.00,0.4080
1095.00,0.4078
1094.00,0.4081
1093.00,0.4090
1092.00,0.4103
1091.00,0.4119
1090.00,0.4137
1089.00,0.4159
1088.00,0.4184
1087.00,0.4211
1086.00,0.4242
1085.00,0.4277
1084.00,0.4316
1083.00,0.4360
1082.00,0.4410
1081.00,0.4469
1080.00,0.4539
1079.00,0.4623
1078.00,0.4725
1077.00,0.4847
1076.00,0.4985
1075.00,0.5126
1074.00,0.5250
1073.00,0.5342
1072.00,0.5396
1071.00,0.5421
1070.00,0.5436
1069.00,0.5459
1068.00,0.5498
1067.00,0.5553
1066.00,0.5623
1065.00,0.5707
1064.00,0.5801
1063.00,0.5904
1062.00,0.6018
1061.00,0.6145
1060.00,0.6292
1059.00,0.6464
1058.00,0.6668
1057.00,0.6908
1056.00,0.7181
1055.00,0.7470
1054.00,0.7748
1053.00,0.7972
1052.00,0.8094
1051.00,0.8079
1050.00,0.7927
1049.00,0.7679
1048.00,0.7389
1047.00,0.7105
1046.00,0.6858
1045.00,0.6662
1044.00,0.6515
1043.00,0.6410
1042.00,0.6340
1041.00,0.6298
1040.00,0.6279
1039.00,0.6276
1038.00,0.6284
1037.00,0.6304
1036.00,0.6331
1035.00,0.6363
1034.00,0.6401
1033.00,0.6445
1032.00,0.6495
1031.00,0.6552
1030.00,0.6615
1029.00,0.6688
1028.00,0.6773
1027.00,0.6874
1026.00,0.6996
1025.00,0.7152
1024.00,0.7356
1023.00,0.7628
1022.00,0.7994
1021.00,0.8468
1020.00,0.9025
1019.00,0.9560
1018.00,0.9911
1017.00,0.9951
1016.00,0.9708
1015.00,0.9327
1014.00,0.8952
1013.00,0.8654
1012.00,0.8442
1011.00,0.8304
1010.00,0.8221
1009.00,0.8180
1008.00,0.8169
1007.00,0.8178
1006.00,0.8203
1005.00,0.8241
1004.00,0.8291
1003.00,0.8348
1002.00,0.8413
1001.00,0.8488
1000.00,0.8572
